time,Fp1,AF3,F3,F7,FC5,FC1,C3,T7,CP5,CP1,P3,P7,PO3,O1,Oz,Pz,Fp2,AF4,Fz
0,0.0578130926223625,-1.3352657084154924,4.640479833687063,0.2195726301066942,7.473817196614639,2.3148415437139684,1.9180966748156771,-9.25753334089126,9.089943478095304,-7.10451877450228,2.414574161945229,7.827253336427483,-3.781129703198186,4.7326890256159295,-5.738116843123748,-7.654468957543281,2.3324826921663933,3.5615787382215918,2.4061686086884366
1,1.367407744009859,10.25965434236544,3.3454085366639283,7.897852219413126,-2.4460512358041715,-1.6550347770740217,-6.301423102394567,-7.29031657442385,-3.5464531672042865,-5.7051868441514895,3.636300217360656,-1.2825848186029645,3.825046404482301,5.962937661787027,2.410637397018606,-2.7197559278382792,1.3394526318411657,6.2637919733936815,-0.2709933443953769
2,-1.7831319287156395,4.133553452902736,-0.9516804959791262,-1.6248027045649216,-1.8273090823392104,-2.2803643913386566,-2.2792246563755216,9.151344472007295,-0.239574973536937,-0.0576040182586088,1.7691680711262048,3.662131270245793,3.538549611536781,-2.7239433022067385,-3.572803309726962,-0.2858428115325089,-2.2085353838975013,1.6398046735877445,-0.3953671258653155
3,-3.6902173016018818,-0.8140001357471458,2.295469337207898,0.9014454794584084,8.323678851159096,1.1279056826096858,6.356886101002165,11.64208189538396,9.354153756254949,-1.6624779662923854,2.290675215611278,5.210836344337908,-5.10322717727332,-1.49422423135094,-6.150061068957704,-5.584582069953891,-3.863720950851863,0.2084173336157382,-1.828346860177869
4,2.137114296846873,6.420466364911961,6.122229701779334,10.015320779430164,3.1063942317276334,3.183129267344362,3.6585346412845454,4.571792674758058,4.91771231923477,-2.325940402424786,0.3462780103332499,-3.960279264161672,-5.355266146914635,5.529653550491721,1.7086454862360498,-4.302073315294452,0.3963915081591944,2.7532331165246107,0.7290575894224337
5,3.0065034673688302,-0.4722690900296653,-0.6882132523545996,-5.7809357744555365,-7.192504994263953,2.1816089414203272,0.86538299733277,-9.880725178813126,3.612375983103595,5.287214421896564,-3.985747465174829,3.3896244798685777,0.6222766891443872,-0.220296884861602,0.2508699061038211,3.623647439171045,2.279004941482361,-1.560678379992841,4.840037331439888
6,-2.8098234332299183,-11.440346969001205,-4.914160005833061,-12.66326841034541,0.2618066554686638,0.205864375381882,3.5604031426627647,-14.66102072042841,9.59135455245166,3.6087191272130297,-3.2465451834012384,10.00727685254223,-2.976252199801211,-7.139298105089271,-4.563689035529023,1.742072773174101,-0.677565533874215,-4.125957835451991,-1.031015458736399
7,-1.8588286449937244,-6.561539915775152,-1.502350250381067,-0.6847403459170762,4.311029640936562,-2.198763428150125,0.3474191400121231,-3.662025520836351,3.2128008957442,-3.5269666869873486,-0.9144184124917238,-1.518351807911432,-5.432844834104109,-2.0103067265825376,2.309429719334139,-1.4325273431732644,-0.5679866220851233,-1.236180370935681,-6.357678196430092
8,2.375042063167176,-2.4353241897959226,-3.56073077164839,-2.490795594853917,-6.430608247413352,-5.527053804897511,-5.815668034013894,-6.952460389399588,-8.662935868958606,0.3757937675350316,-0.5505124149102837,-3.67532936797929,3.620429965806049,1.4598723384075918,9.23221287347914,5.372431296139711,2.060922172414215,-1.2617605500551918,-2.131779280004617
9,-0.8634637747525892,-7.314437236713104,-8.969851638432676,-6.9657914582275104,-6.652614177098142,-8.085985168404934,-5.035622456803219,-15.798884350577987,-5.848907478870942,2.314192006460764,1.3922304049030323,2.719215979394576,6.738230909722082,-0.1648133782894298,6.087264483883207,6.227817904694945,0.4502558079094021,-3.210164636722559,-1.7752764578418017
10,-5.527113695984758,-15.15324122202362,-10.964000116564469,-12.489017620959173,-0.6016602892317279,-6.9918139716954055,0.9009090522377872,-9.975048389210183,6.70395067280618,0.8653440331707029,2.822932171435503,5.097181041005557,4.105875667734844,6.219834452633192,1.332153099710017,1.0608862262622272,-3.4300694775516534,-9.061342831132231,-3.7313253328984817
11,-1.971356678999296,-15.728655831510416,-8.793897529403491,-19.66939410433705,-3.052369897138292,-1.3695041849309533,5.70780330735689,0.1109205441205247,9.753625304405777,6.72569970426962,3.036975032549767,8.693543958825446,5.654841749743856,8.580986226671167,-0.9624587106678222,2.2086541077638944,-2.0559881017317023,-11.4947607205925,0.511094585143617
12,3.894317274317945,-1.938374355930235,1.0283552199761514,-1.2971550007795365,2.9101814140619995,6.430109077098584,8.168545095098683,14.270457157958957,3.6641910076850177,4.644337595031017,5.306327936805884,-1.9700203739354825,-1.6880934864098815,-0.9696063241034842,-3.8227610521056814,-0.6240736985140316,3.042439568527549,0.4808593995178034,1.2526127181553155
13,2.907696663436754,4.99270455678065,8.645201705313035,12.165236927597483,10.863424378983844,9.79155936740323,9.403067100964131,14.304438451519806,3.9972179162212056,-3.573836226683226,7.045398297788681,-12.835252219585204,-8.98099314346244,0.4238509309720608,-3.7479551462602,-5.4541698855318055,3.418199781347508,6.601534019983704,-1.344568293828263
14,1.0580250540908047,0.5800353683377839,4.298477688772397,-0.7441676182685191,0.2144364216434742,4.721109294657241,5.066073103153559,-7.613942741337569,5.9702802235264905,-0.7175163247283969,5.833041679289019,6.989108743358784,0.4509561792958174,4.224517367656153,-0.9540950874303888,-0.3526102225172756,1.323158434281671,0.5069357682017608,0.721471330454242
15,3.2785719026379625,3.4351106968241694,-0.0019421883766332,0.7475836212902016,-4.609747736781962,-0.9528827236433056,-1.5713496618906704,-7.412841215319899,2.686152756079501,-0.1465858483290458,2.971131878605506,18.11200168971008,2.946715831700576,-6.221153177918641,-2.016983052969469,0.7675996465673416,3.0866173756318545,1.2836101598188423,1.0748783177447565
16,2.2281391277982747,0.4302953522479202,1.4091256458190005,5.303831695732512,9.690888200267304,-0.4889199860928164,1.2277185018623342,10.641130901815524,5.16758305252271,-5.371274387491595,0.5843392181781284,-0.8699669962096483,-5.21073119621747,-1.121902938394558,-1.070280562840812,-4.689523125599122,3.2019186623443314,-0.1311479737223324,-1.811933834238668
17,-0.4694497515297569,-5.595302582696736,2.41508279299151,-1.509815281275958,10.576332464018236,0.513850741416414,2.878073142132537,6.55513571876028,2.398076584136136,-2.2024369843862446,-0.3016937209109438,-8.830832038626106,-0.6909997620710178,13.120674853951828,5.245467229557519,-2.669749559033409,-0.2928893552191281,-4.650414869122217,-1.4358128155951095
18,-0.4817165062275499,2.6953188510153456,1.485807816524562,3.3252443629418345,-7.229542368363354,-0.3729380290826098,-6.9753812775895785,-9.534643572505193,-12.125248155484272,0.8079133939064764,-2.8707218013513547,-3.780972531959789,4.086908671430821,1.030140140296644,4.104994346841308,0.1288294296237198,-1.2488192199978545,1.8096764878021832,1.18590352402307
19,-3.7663075006107976,-1.5073173062956553,-3.357744674492657,-3.5481564522291054,-13.473328155134244,-0.317219018316493,-8.103547292195264,-18.069543343789903,-8.61507591588076,0.232962126706394,-4.595787249127401,0.7620829147547209,1.838084885761968,-7.233739889985268,-0.5767515954585211,0.6099345900333039,-2.3095288896755624,0.0095567987248177,1.9260970833697375
20,-4.891851283702845,-10.492788192734208,-5.619744722999901,-11.705939691878728,-3.610297340141965,-2.3901525389276363,-0.1293448864480213,-6.858936249382957,1.8709165678890656,2.3057615386719763,-1.0624575227821311,4.362338477689168,6.687758801333163,3.89947469180453,3.9962017702862296,4.665715934461275,-3.8789369245183942,-7.2187276055019804,-1.642143500610155
21,1.0029228262212937,6.564073599535248,-0.126543204755043,10.276093062656011,0.8778574739670604,-5.051270325157467,-3.824361729041598,10.132894228915344,-10.081340962185324,-0.2982774101671315,-1.0639826638186884,-7.942482744732843,6.541436275240923,-0.1946491589273979,5.026319996135544,4.166657784511105,-0.4522146335254464,3.20982640485448,-4.630316301772878
22,0.0983116600549935,11.851569516912328,0.3231352304860806,9.454736935616964,-4.233816361910823,-2.3341896316508124,-6.560358128373071,-0.4328879174594902,-10.837088906553138,-2.2312759383108958,-4.781202693852646,-10.53130221120743,-0.2027907635356038,-6.197156315995792,-3.0103466406736072,0.708254725888299,0.7285369633000158,5.878831808753352,-0.82965250772311
23,-4.625032120437761,0.6678670674706432,-1.52814592294797,-8.689584639280737,-2.476047046690679,0.9313472903653948,1.0558512509944409,0.2478776851974644,6.110094101169414,2.13160325477869,-1.3447969361350196,10.315048754313866,2.515611404584649,1.1931133953294453,-3.556160605660469,1.457404323775067,-3.8034979632334434,-4.111832284411443,1.748173879288056
24,0.5569243098732397,13.643813350851175,5.485281148185731,11.502275065479832,4.926533679561977,0.2445471418536615,0.3651008103697897,28.42411145976674,-2.486794762050943,0.7562657791991234,0.7217064365567705,3.9593598603750095,3.05160736282481,-2.3378502912587766,1.3225468655159238,-0.2768527709415986,-3.20918800655481,3.513149605573921,-0.3191515500084618
25,3.858956465832318,17.930148432032464,6.646313767447094,17.654707375660983,1.2219507263445428,0.0815698208682507,-4.577824762011895,18.964606372855023,-15.537613963482764,-0.3604739185882968,-4.333916166971129,-12.642869438517767,-1.1094289123784449,-7.090771518912229,0.25099258122692,-0.4842815149331776,0.1623757460575516,9.027125414806076,2.041933700520459
26,-1.2896564166724218,-2.5688618606138087,-0.0240912966763349,-6.168179657535073,-5.7005666763186325,0.8614504890290231,-2.203486419063542,-2.293441941111503,-4.128337534769185,5.19525621155699,-4.496121766518728,2.1151762203666298,1.889534836780916,-2.964715169408805,-2.3268338968597337,5.295617980284934,-1.9427117634508333,-1.7595021092446572,5.175538573369149
27,-2.337292454855074,-3.618898584545277,0.9822889039189806,-3.871359082424042,-3.760827780288954,1.0557066736203118,-1.9301257056075567,7.396741993858672,-0.472933246093361,5.263619473180109,-3.0129219981937414,3.3292983234637497,0.6115976651213111,-6.090004541434129,-3.0342311019880803,6.462800454697125,-3.2057565623867363,-2.96741671179682,4.147461251265915
28,-0.2281986863043892,3.77424849766158,2.233624459850734,-0.0234503789665021,-3.121468678406708,2.873311558003858,-1.8778073880058117,-2.8550684880928943,-6.05986251358273,5.097281527268251,-4.331008706124984,-9.771269234454728,-3.6381302348014346,-5.481962308004294,-2.849953172588761,5.171311207174281,-1.7087765377678448,-1.019253107665982,5.132637703490504
29,0.7460348504513297,3.035252791258747,1.3290807385147687,-1.886207868128217,-1.6763427706342329,4.61472996075679,2.3798644285069592,-12.33177180402837,-0.843269306588506,6.226038200525785,0.2083526366497441,-1.0694224690314496,-1.1572707949178946,-0.2789440279650907,-1.9883261940972847,3.72832965050384,-1.705848719779623,-2.1852054181451352,4.14834878235613
30,3.385579708659736,13.14931798895065,6.492042062172676,18.831091687484925,7.359597245990919,3.641381940563672,1.5923620221963757,9.547722600096314,-0.9694160093225572,-4.312669858175523,3.055624081614959,-5.564854852243958,-5.077402854728662,-5.219039831499943,-3.3174196425723004,-5.272852066789049,0.4857638726533837,8.490747917052676,-1.5653771650356598
31,3.1090460336105616,12.956935244492753,5.401128287309434,16.424621087256618,8.469487138864253,2.0986619087420983,0.5773543782313135,1.7951919845742932,-2.5829463037499703,-9.840943599206668,-0.6230446685749476,-15.39629289521973,-8.480289932515301,-3.2276822595015533,-3.612468415233128,-9.479104152773123,3.1257022590625505,11.817029957544603,-1.7665577018252696
32,1.4797469612175682,-2.6738195519569947,-2.161462838578378,-6.652455729002019,0.1637479080584748,0.498258249152793,3.8248914370322256,-16.18687978630975,5.975311560484739,-0.4213449656955405,1.5089926766259056,5.675897137858868,0.6105527547487746,4.237536131776497,-0.0163317838208922,-2.950626632161386,1.4522299817648792,0.2461910503175967,1.4950051371354132
33,4.4083758338216255,0.1864231202931061,-1.8121675571541944,1.5408349054421375,-4.079218683474577,-3.2091109216261526,-1.1861976629553264,-1.950311062240761,3.051260890836457,-0.7200876458743515,2.912794089765068,12.372356968867033,2.051404027371454,-1.3247407515702987,1.95299132954102,-3.0044551732748115,1.6916979641913503,0.5409404149175958,-0.4061969879120291
34,4.689256783094182,6.754960115861444,-1.6458806911574992,6.801204998613024,-7.293626323396964,-6.804328918905029,-10.187183990412024,1.7480084766779242,-7.305131627331629,-8.547705543943739,-4.5483491227837405,-3.447646018536047,-3.424440378791159,-2.47498377644815,3.208213157246643,-6.177419131112303,4.9776558750736015,5.757758809777332,-2.614667877919361
35,1.3160993639298262,-2.2854688036175235,-4.454806946544533,-6.888117520767525,-7.715708879355347,-5.68592532262439,-8.848867115940918,1.8459747781530675,-4.443274221925411,-4.7142630233999725,-6.568183569869883,-1.7731037453362122,1.278567803102261,4.042144400092736,5.512869741086702,-0.7972092555122074,4.136341980370833,-0.3403657391061676,-1.065030484262394
36,0.4058761599849089,-8.411480130281975,-1.7966746993583225,-6.011371416648902,-1.251033782484789,-1.6427521496872002,-2.95173809331848,7.265689463566686,-0.8700714908870119,1.2443089760730122,-1.6298360705181516,-0.4802053485376472,4.444416731695213,1.80358770954364,3.737888124910707,3.301168641042328,0.3086419670324758,-5.705816127815213,0.6691318441199225
37,-3.417800105486923,-13.25071064288746,-3.548854351301074,-10.49940656774173,-0.6979927202424374,-0.2424198863322555,0.6664804840625247,-13.368243406188324,0.8147801082196975,2.349488868271198,0.5836924205195455,-2.8512362057402925,1.8024243227945156,2.0774126341870245,1.344217721896166,2.7690799017868084,-2.6072886108186983,-7.897376724774605,0.6454712704318712
38,-8.240766940383706,-17.406675715288735,-9.46693239311284,-21.258484562166565,-3.802858488126175,-1.0430180378680065,4.460554375038097,-10.60066705960548,8.93078738014172,4.011145677817273,2.7777005172909632,6.0820180759857045,2.1402736114031207,6.321414462976864,1.877987850094884,2.3234358233529875,-3.936300942384092,-8.882975998017132,-1.1743189520823094
39,-4.88644031545626,-6.59343645825898,-5.401466662570551,-7.115680091041579,2.13534795568211,-1.7241516139654658,5.456947811369351,25.805998585040687,8.730575815736048,3.3316337653031574,4.382889551108012,3.544548399105941,0.3458155114858128,2.07743538049026,-0.5015184046135064,-0.8199345719400319,-2.808931431071916,-4.074806194850946,-3.623625954576053
40,-0.8164075375581611,3.6246521562167535,0.88223486492557,8.97106260347598,7.138528272906567,-2.646019067038737,2.766252329631482,19.59928688523363,1.384096751698657,0.7450153356204638,3.646304925348039,0.0056194757344293,-1.311927619942503,0.7001208946183919,-2.2000160515364904,-3.459312472776918,-1.4602220468261629,-1.0812238926789723,-5.510227729928179
41,-1.105791496140112,3.338222638045042,0.9673985139551076,10.538550495413883,3.2039507948794115,-1.8349808461488175,0.2827939900050649,-6.954305049016491,-0.4860623464982532,-1.2237514455054173,4.571551075953797,7.0945363150111405,1.354675364492929,6.349529800954974,2.8984961275508128,-2.1622417932532443,-0.3923132213433038,0.7904666752073544,-6.01964738264463
42,1.1112180405976808,5.1866748103531455,1.745226630257144,11.022168479644414,0.0046167839589048,0.112366808109964,-1.4887054595228757,-2.687226185832,-4.437275605366311,-2.455681896628241,3.0766397326742405,-1.736593166466852,1.7932297266613046,5.188716124012644,5.526361496750737,0.0695428571020215,1.2581159253553815,5.363275895429461,-3.842094212481181
43,1.2415571225024709,-0.2599760432253093,2.3399146398626955,2.027352835771892,3.87763371516952,-0.1218613382076292,1.7746177972421842,3.9858022951058047,-0.9346391822063228,0.82998083189327,0.9409722859476216,-3.06123523394282,1.85349757978479,-1.1520685720420452,-0.4113771490529732,3.0872287209439726,-1.3350206240991418,-1.102449857758812,-2.154313229217492
44,-3.733645128983012,-12.98691835874403,0.3869576817543514,-7.767237755443507,10.085025364324023,0.4131091112841103,9.076155070745896,3.1599862222130244,16.21204095419019,3.101214108769442,6.787517835424536,16.240516182851554,1.7512886509406118,-0.7626951589286226,-5.06526545856841,3.477229890092765,-4.404766338459821,-9.805687660836853,-3.5151390112995062
45,-3.350516308001472,-9.585143944892549,-1.461493555945245,-2.7583565606333904,6.443136510807502,2.247273544947811,7.136151030390616,0.51668178821545,15.052678104093328,0.1581004530673442,9.809214713849023,10.45709349385204,-0.5328319517580877,5.690277791249014,-2.110665677953762,1.445120141521978,0.6606106427312903,-1.4263909462208488,-2.125956622331829
46,0.0504681413796905,-1.9533851437199197,-4.113891851814759,-5.0081744342897165,-4.581117863361114,2.247498978679189,0.9456811117034668,-12.860464055210812,0.1038982726939394,1.9901048033355928,1.9040959395549415,-3.555404638625671,0.9018393793335386,5.331316203862579,0.4511963392438338,3.5048811153642294,4.480676526003428,4.070315504531102,3.5439165638927466
47,-1.6191084299601108,-7.801676454739624,-3.712521659670795,-15.482135246527273,-4.726921084164461,4.275003966134439,4.93080935604811,-20.240429117694674,3.8729732334299136,4.228795671970225,-3.691780968583563,5.109264393926333,-1.401225370358949,-2.348597140100882,-2.728574612433679,2.3125489863681867,1.2110909023721144,-2.6142673264187586,6.315832976066627
48,-0.6086268148741194,-6.265539248477892,2.3014870121409072,-10.123328199102694,0.9229397684176206,7.335361890426427,6.349224906956515,-14.929457712647352,4.89477851128424,-2.508453682492324,-4.943941344677069,-0.7678308152824984,-10.01039208981927,-3.0452042756637576,-3.953954880397753,-4.779606285744953,2.456492133674175,0.440819790420651,5.4546167127678125
49,4.996065741895512,3.32950129411973,6.420531702175047,-1.294382793205271,-0.0196727820035111,5.761118268381282,-1.2783785634447518,-11.427774413245414,-7.491497866836559,-5.970222212928529,-8.21502733334534,-14.683822997833484,-8.004281651107485,-0.4769591912878956,-0.6353799163805081,-3.945509847356563,6.223922876956111,5.334304200199225,6.199608095485928
50,6.0501110567618985,0.9492175827044692,6.865681251563558,-2.455169876376834,1.7346326517511994,4.005868411238226,-1.5480709045701262,-11.980629424786182,-3.6151246192713593,-2.2701639031088217,-6.858061985104749,-3.984105621525445,-0.6235090257453988,-3.730594798390969,-0.1869372519043191,1.0565435133115966,4.145157127806847,0.4716943267275226,7.476723954770195
51,3.584562393196221,-1.4316634658055638,5.235176741356474,-1.4192820872027077,3.330471447200626,2.787334813983044,1.047003502537575,-13.900703579399837,2.951812054915456,-0.7271037599206664,-1.0357849505584569,1.1253725474625575,-0.2627639056760893,-3.046647511143433,-1.0968747799066847,0.796138558996094,2.930975652109272,2.0215862104753466,4.659072084441588
52,0.2017693173205708,-0.3106812358761903,-0.5581359198596648,-2.279673385293554,-1.2458020435209238,-1.6354270181591692,-0.8944297899697551,-9.8568297687872,-0.6449785139729312,1.742262034970434,1.7314924682546122,-5.672502320685511,1.5575237767850187,0.6522544385441792,0.3987272654115442,2.142630751100416,2.252298470442872,2.5098039006456934,-1.003809187602856
53,-3.3827436172673053,-6.5795782994627805,-3.40444566748674,-6.640340407155893,1.2845097960553804,-2.8333794722692103,2.451016090505318,-1.5908734273420402,7.057037292332942,3.908911715655055,2.9525187871276897,0.1457713610060762,2.211851631465974,-1.091569930306674,-0.8097067574984018,1.9758734797312048,-2.6551181560034864,-6.99590463150246,-3.860321179774696
54,0.4731804191474119,-1.1774988692504047,1.3509820104136936,0.4698184899190784,4.399638440991434,-0.2315844911088938,2.4086796878731307,-0.6526686401201697,6.978539926807224,0.625736195175029,1.0854695355847743,-0.0766905017195735,-1.457585817245566,-2.0099773870403976,-3.745711197729227,-2.9754561540924933,-2.79604316613711,-4.8328887731627725,-1.528385846270481
55,6.5149856839556985,10.688048900946663,3.4245924201641555,3.894075554373475,-0.2017365655027245,0.5777415207582104,-2.8509130101732576,1.872720415839516,-6.643902448165225,0.3488279391949998,-3.737583290125529,-5.779969297672771,0.1966838894804689,-3.482271875982736,-5.024864509358075,-1.9379301469059191,1.6353380197290472,1.7401450981097195,2.78570676088058
56,2.04486822992906,1.5155648363594725,0.5679906207059529,-6.142278512216195,3.3916512227030746,1.6410572515978905,3.084083775149514,9.41864789169192,2.1103175793665185,1.5462622682429328,-1.4752587972787623,5.867684365488701,-0.4879534350030763,-5.745053576946764,-6.204315276203762,-0.5577347566986517,0.5093561899445502,-4.238368604655385,2.693483571823056
57,-3.693729645486874,-1.9255458596941133,0.4913201715600483,2.52116751405657,6.771785411444258,-0.0734450972217515,4.917329214994948,9.882846727770454,11.597452919626894,-5.264553527661088,6.266229920232551,11.28784106479517,-5.588060234733071,4.533354899230139,0.1214341528012292,-6.460726116694508,-2.123951522737826,-1.1251736782481754,-4.337247974742095
58,-3.021322190410804,11.718372719753246,1.636735331513611,22.391862346391378,1.3836453439332583,-4.479665461975408,-3.3315106872326137,7.734430519787162,3.199833763732922,-11.203502168815676,11.209791110826131,2.113013785184787,-3.402632048308612,17.22426628034757,12.549942291402845,-8.800196302623492,-1.9323664822607896,9.742598380252591,-10.438306756404208
59,-4.719805911581276,6.39971546137062,1.0837036818366723,16.163985175847724,7.533631191914096,-2.0065195682795496,2.715819931049082,12.088467692537428,10.151490342841129,-8.181826266192394,12.03304894141504,3.271111524400159,-2.7659168521817428,11.565857550670708,10.177645054621372,-7.20188392525696,-2.793870645332107,5.636842055119835,-7.890372379627155
60,-3.621747561712517,-1.4360559867538505,0.9604124831024656,4.075939012342008,9.847460875018957,1.0168437649061055,6.297047164970524,22.01898417461816,9.006779768413281,-0.7363411725535464,2.903550782962335,2.558703676775673,-2.6976168850403184,-2.655620470674493,-3.3487099440535792,-3.652205748134673,-2.4113547660137,0.1797381777226678,-0.2862582738563399
61,5.175663322326009,9.688767419843128,0.5517469552956825,5.063730384206346,-8.852746596792139,-1.5927689838959136,-7.719658431762593,19.858484421317225,-18.192539178683965,6.933721189793498,-10.903676566348093,-6.760305583091422,9.06270617690832,-7.963384347141579,-4.131067184027917,6.721628372487444,0.2340944012947365,0.4149687393743705,6.125812677944316
62,6.348250884227611,10.052618948578456,0.0514991575147161,2.629538133502251,-14.375153055476517,-0.516438858754477,-10.386813630745827,-0.8679567958807977,-21.495921511935748,6.582967603744539,-11.727683515048552,-3.959795299189521,11.504819167170623,-6.04052887478444,2.099827525170537,9.295599172722229,0.8580408667797643,-1.8537132970949888,6.901885300869068
63,-0.4911716758170206,7.807094853960338,0.2417939351599427,9.341692412102706,-5.914487701716123,-0.3592206643846385,-9.176443299501996,3.078916789078655,-14.512480205866206,-2.430668808326672,-7.838909746409536,-5.153182612947657,-2.9267427085691287,-7.218437534056104,1.2526075700144967,-0.4445336751890894,0.2159471719779615,5.710467437796748,0.8943953001350979
64,-0.7388031590848492,17.9606852649804,-1.7461292543120497,21.604563642693456,-12.349812757202374,-5.456341981627116,-20.60240173217206,31.212984096665224,-31.353911434493316,-3.6190023748671374,-13.44736474797143,-19.54371664141428,-5.789202704846509,-13.984424964875934,0.9578611495488972,0.3572496753196503,-0.899503763829852,13.138384677652011,-1.9265210911522912
65,1.895876277817524,10.752213763809149,-4.898685035788315,7.40498083048821,-17.80063720089045,-5.263104722279412,-18.850468318799077,19.93827889682501,-33.23441312966101,4.741770559600864,-16.099747625330075,-17.004764741230915,3.88930768285741,-15.057527175100894,3.37937261343314,9.65379088269365,-3.25824312368799,1.3149801900356066,2.812862961171982
66,-0.5086552801458741,-1.957838889279521,-6.048984378281901,-8.272552202568528,-15.727437914444858,-5.786476578419867,-9.954959741747338,-12.156711711354346,-19.77238858501511,6.599455033704798,-9.677969414200998,-4.008106974519331,9.582123453084575,-4.928076618498032,4.341796582443994,9.155938454871952,-4.329662048142488,-5.912456107621043,2.4867709708441783
67,-4.054659766145832,5.169864963921219,-6.35887165390131,-0.2657513654017371,-19.953520545519243,-11.489154826018323,-13.228802895821673,-9.80260223776726,-19.09227974981616,2.1002870084137566,-2.5514206431538438,-1.89698650826407,13.198702207705738,3.1013165407438947,6.731130357640064,5.310484047634397,-5.200434317656239,0.8769729516331193,-4.058059600558039
68,-5.207180939742443,6.955801133607183,-5.427543366966759,2.754774362839634,-13.473625057177438,-7.964273376417962,-8.062368547788758,11.14158468079712,-9.598495134099885,2.847693669343153,3.701432773566905,1.9937080464947217,13.8733220388883,0.007917527716744,4.37266221472394,4.861150928749076,-7.633665488137907,-0.2469987072109374,-4.538440296889481
69,-2.2891935990070627,1.0911938090843112,-2.0912484339313133,-1.0140418918129992,2.019984047044153,0.5345694007855704,2.74295248008959,26.362504018422968,3.4532972248543103,8.30009448361131,6.441778089225437,5.60254473466866,11.472520705934173,-4.106238529558201,-3.5290352707367667,4.464396633113357,-6.494957889266236,-4.382411785314006,-0.8406657208173627
70,2.5114071225872574,3.546602392413379,0.7122221903513304,1.5421792576173123,2.6273346527115446,2.2936327218272625,2.3967619999829504,11.83228818338692,2.481619887447458,10.52921761972786,6.196783593006484,2.699358010055036,11.35900460546123,0.9688276370843888,-1.969197052013384,6.152736517447025,-1.4023624264417034,-2.4347770563021376,0.329059135035938
71,1.5232366017528816,-0.6025063864083773,0.6409098221374947,-3.681349765663321,-0.4953846226800653,2.9977678671450816,4.65082298804738,-28.775490171678715,7.566944694764752,7.61818212892388,7.043906398398964,5.846598793195975,5.726836281825586,5.4137952314236575,3.1461680261345224,6.153819275693876,0.0844291876112333,-2.985524576848465,0.470419344343945
72,-4.22820443575765,-9.770510005386646,-1.8169053509699404,-12.022957920710336,1.1933017957378276,3.171564090760503,7.554363164323933,-29.204319479635625,10.73310545459745,4.3521985506262375,4.043484412332569,4.689518691671246,-6.148527935836658,-1.399913133786149,-2.083759569971137,1.8589690836182124,-2.427963680950035,-3.394197678984725,-1.0565594564634615
73,-6.619640930142344,-11.622355460433882,-3.664606408114483,-13.171653877759416,-1.4614332161267645,1.8079960151604693,4.217617746073187,-5.54658997867584,4.601722219392048,3.7796538473016383,1.9518679749154395,-0.7431288316867937,-8.477201757908972,-4.100480827793966,-3.603967419848202,1.9401725937159624,-3.3838900132608054,-2.9735999689026333,-3.062304746795653
74,-4.976897352740251,-15.462681226034343,-2.3802360761954047,-16.25162767180411,1.9433452875147743,3.7239372399079143,9.132460879900632,-16.149638349768473,13.872579119712585,3.270921693476139,7.364546003415596,11.20252205232708,-1.7618067063843543,6.00631327491025,2.820235183274715,4.011050508374568,-2.8804932094039684,-7.9189977497795345,-1.3872021831281982
75,-2.137113286945805,-19.91307122393947,-0.4580085848716297,-17.420065370117157,14.186793173469123,4.840368564599128,16.674557722265195,-14.460394507377908,25.881193311727493,-0.59062107776818,7.400504115048157,18.21382720933236,-3.002891940468862,9.26062419165332,-1.2306423152613917,-2.615965057596304,-0.8493212346567294,-9.652487340898428,0.9660750680116408
76,2.539733200163677,-16.51211920802141,2.350769001644702,-10.186192173642963,21.82529408891416,5.518690113168486,16.749924779164893,2.673037515512751,24.325488256404736,-7.794689735696407,3.4081670148200804,3.730360666182636,-13.859050375859873,4.31957879756266,-9.878908344161546,-13.144803240177891,6.6795059051038095,-1.0559841808478336,1.4021557440150754
77,8.071125791169548,-9.154965809881796,8.494746656962626,-1.4494982794954727,23.57994417060488,9.19681483410424,16.834843009955918,-14.758497692354473,25.019537100575,-12.30056361040322,7.296314847076827,-1.465583148547021,-17.338713025384028,8.305352646290178,-7.707717131456949,-15.374629185769164,15.288855597866233,8.65356981989877,2.27207490069263
78,10.107942660511776,-3.69120184310002,11.65616576350602,2.277166951665448,19.95493960324584,8.648053180346299,14.483348561079286,-22.77967206673568,24.05425491207415,-8.771242671663963,7.4716606299103505,3.7443826815879504,-9.123960493563242,13.623069291482524,-4.214407356716188,-9.080964149372685,16.269620312227424,8.424290837865923,3.981999933156245
79,7.931535434482726,-3.606947259107642,9.50160302683184,-0.0605999402818504,14.359379401564514,6.668261376669106,9.955477663641862,-8.55108930159203,17.271360639609775,-5.45588525934642,0.6673154757631652,1.2518637336936265,-7.054564627846599,8.23529640637796,-6.390035899943557,-5.583254396731247,13.158478142396362,2.293413491465749,6.496751609016541
80,4.992890325060143,-3.001144803885229,8.340560002882478,0.0494345873963935,14.29673624781742,8.913056195386968,8.19424843735289,-10.55722669605804,13.47713251483875,-11.014471346678269,-2.1255487809494094,-2.582009971701977,-15.611313336289363,-0.1537313426271485,-7.687266226490672,-10.129649277827628,12.077154381674076,3.8218067159193385,7.625294621865558
81,1.282062226579716,-2.8726333889981968,5.137457684683482,-0.5504717818998897,12.233139884416286,6.010885978039148,3.668317321370584,-8.841145380173083,8.472141351587737,-15.71346650602171,-5.275019797766545,-6.47120392562915,-18.517692776957297,-2.3139698666486685,-6.720281859028486,-12.870099339201508,8.995133420299608,5.973650964079463,3.8108499424076463
82,-2.636878001171829,-12.618263113562264,-1.2839054853337697,-11.147039046220874,5.54026207101063,-1.2635705515718758,1.217245127252217,-9.49270466367316,7.146227372055246,-10.852817307352373,-6.613959486083065,-4.968110034181038,-11.853405774962882,2.9904241909491818,-1.996005123196516,-7.916330035253621,3.227227933712812,-3.260471791992221,-1.0151399730354305
83,-1.65596132214159,-12.430338169111472,-1.6880214195416094,-8.189520838778943,2.633823098367447,-4.685575300510145,1.529031755328,-14.004861796750609,7.662775974911416,-5.639894628106157,-0.9502850468595874,4.066807408968586,-4.6485969787843295,7.107921049178125,5.927140293095062,-4.138883098026502,0.8381093285336787,-6.758343694106324,-3.498872607917357
84,0.5736551981491456,4.099988541716616,0.1489297035134456,11.812698541103044,-0.4744234409446193,-7.876901148862822,-5.912738666734669,12.16070458311916,-2.888668899731484,-6.5609694588896135,0.0868128722679131,0.2374580201028049,-0.8979522707452574,3.841140553462859,8.403902774521592,-5.88101767480636,-0.1860141269805186,0.3032542629385677,-7.5489274460591345
85,-4.000512189461958,2.350167743728031,-3.8884839128184456,11.046892247331314,-3.387393469475052,-9.35050253259281,-8.328586293101486,17.671648477058323,-5.126279636836324,-6.281789315648966,0.1460356153473743,-3.8475002731786816,0.7384071729163324,2.549127523724094,6.117871422254925,-5.498424087795711,-5.458261114997978,-3.0115096072076923,-11.308622045793848
86,-8.41512568938404,-10.087199090548832,-6.457489729590328,-2.996899785595179,-1.5081886929619364,-5.0066460476534935,0.5812387467993156,-9.661040887190955,5.852189233311828,0.2463687269203607,7.178125209187304,9.856641819681773,4.494190365167526,4.290122378739524,6.121413795625157,0.8041608844329806,-9.866690009149762,-9.827315445087176,-8.19588288841327
87,-3.440491039439113,-0.9111755211415672,-4.034792605264718,-3.011643777430143,-6.906851729461375,-0.5844598873447753,1.1412488567759886,2.375940948600853,0.092426930976424,8.809684061781207,5.608467403599834,9.643304951659369,10.171543718849115,0.0829101317125164,6.073382306074878,8.140564175008626,-5.847295926429517,-4.709354653071161,-0.035634427883687
88,3.763923198480614,11.733822254812504,-2.552420016526601,-1.367915493321746,-17.549416107077178,1.4946568551982704,-5.4498552682368055,14.75621321245681,-16.13511825358383,13.440063158768815,-4.576247763999633,-6.437432199778736,12.678707983372252,-5.145967239108084,4.056735170683519,12.30764158105224,0.1756120726008907,0.3293124924638446,5.473858627568112
89,2.2209200619178637,10.394666377726644,-3.312230397516202,0.7133420998975959,-14.911993387014752,0.7788212428014618,-6.978809009115387,-3.7513365007045616,-19.51700811539143,10.7824594994572,-6.4094748691675205,-6.557834426619583,11.025663251459637,-7.097462506125319,1.7047975134657842,11.445430398109124,-3.1160148125725917,-0.398349657016892,3.3212622961641918
90,-6.462144875753734,5.935399106303358,-6.028934701783153,6.377878467806668,-7.448597745891186,-3.896884901015608,-7.461320718184971,7.12892234206531,-15.29963537515961,4.38934854404398,-2.5864708547862376,-2.694623359852494,7.135069648412893,-6.845063238260501,-0.1013303483342843,6.433609476540415,-10.993847810270138,-1.0101828403356812,-3.320146756472405
91,-9.541146896961449,3.1293320453534816,-7.429590350201382,1.0800357336847148,-10.68232115629378,-5.966691600334261,-7.738924514688055,17.708192653705442,-12.48482248126045,4.655881644356889,0.3747003781269991,-5.4626377584862365,8.467053143272805,0.119780500264244,3.9813553436534175,5.99436464748981,-11.670417025071131,-2.285641357851527,-4.518480825273359
92,-1.646063517469294,8.55539878930519,-2.272953292786901,-1.80115178541997,-12.729318901017033,-2.001897395448282,-6.114866787453461,6.514658816798614,-13.34443498574747,11.853726000547924,2.596816830344143,0.9813905354384256,16.70396346624358,3.4518149766836124,9.070206556352666,11.953777147482308,-6.868721564298662,-0.8604603182762167,2.067006532376222
93,4.890953363553445,19.456109617195164,3.94850110068033,8.974379872600357,-5.320756923431171,2.336506528950101,-4.872129398482088,24.92309340623134,-13.802512964196753,12.947695648529434,0.1693147046302185,8.628636412692872,14.213422711804707,-9.43800116385473,0.2345177572059653,10.313059843043597,-3.636301569774572,4.180175122175773,7.015512071020085
94,2.8333768131229817,21.50701312369317,3.843783822903807,15.828635209058753,-3.131035615708784,1.4025963519881033,-6.567416284853171,35.54467890942852,-14.092354543883364,6.41949525787777,-5.2078899611667495,3.7883679977490177,2.319854245188276,-20.566931412624985,-11.58329808257126,1.9056795424855115,-3.0341867051768228,6.899218971771028,4.820212163943491
95,0.5359675254360097,19.57624343852654,0.4431180639870815,17.550187903549514,-12.078882490694664,-4.472257373477261,-14.534771252641958,16.571470076305523,-23.91074974420995,1.640639534922804,-7.549609667853768,-8.332912029191295,3.4715960427262527,-14.801102959178484,-5.946819479230037,2.0986198217869525,-4.1950179910647165,8.878653642041211,-0.0940528883215376
96,0.7603897259257799,18.27465061816643,-0.562597958226223,16.5886784176461,-17.826329989404854,-5.619626635732105,-19.008595794053555,14.209039148961878,-28.647235144722725,-0.7725765694400568,-6.023159550733322,-16.481090950847644,7.9903182844030844,-6.952197121042983,3.7818415082459858,5.076024406678313,-4.039289677494152,10.85945974939908,-1.816474744673842
97,0.5624212466554426,13.697366438247142,2.287467731808471,9.089551949357473,-12.87265215695018,0.8343667247070667,-11.453126588033424,-0.1842449409735425,-18.13639284922414,0.9354343875052498,-4.293082060757639,-14.182814567396456,3.058470742054769,-6.698001110678368,2.0548817741342305,3.9732234456179754,-1.817318457412184,7.837835052892849,1.741939623121674
98,1.4851719419264913,11.373550063406356,4.103186313871837,5.980601906275552,-6.506149147556215,1.90413615981384,-6.449839074062361,-22.659327750352155,-16.663545754803472,7.503187433649076,-6.521084675122932,-12.58355533871324,4.32472974461723,-6.513690108215034,0.5349875257687868,8.178507263900274,-2.4347305205252923,1.7230519678203056,5.219553026723523
99,1.991190861502677,10.451730360541426,0.6844214453856627,7.436227042859261,-6.539475643210129,-4.765122159121616,-10.14434492111287,5.492783371918029,-21.259108183305727,5.536659494046202,-7.2524714973536915,-14.764192563977137,7.259073643598143,-4.879662056314733,3.6181580224232,10.19573184181932,-3.6922287305927632,-0.0687096241377949,1.1197930164232803
100,0.3192495331826439,7.172608900459322,-2.725288241295532,5.145080831846064,-8.873295056092,-7.938752715314549,-10.823200153452628,30.459907603660508,-12.722955773119192,-2.8342766948565563,-2.268190040937899,-6.2782195655264506,1.2385531100374472,-4.340252259808255,3.44522140496788,2.5213761822270357,-0.9430191332107364,2.5458187877820877,-4.931816950136211
101,-1.2076025961007797,0.6690519019716712,-3.398567295403898,1.1750576992193302,-3.86973421278288,-5.589872463775406,-4.675666873093583,5.460504312959574,-1.379154390737722,-1.147133439045656,-0.3275384674542541,3.423926152031064,-1.2327523778637102,-1.66580295554748,0.9905659673853986,-0.6194419641083999,0.3770655859833862,-0.0734147968298639,-3.825813804754488
102,-2.0732796919901677,-9.899446117049088,-4.074343050401977,-3.592025790609895,6.985715513314878,-2.3252907607322286,3.669692602875773,-8.502468118607062,8.836861698852083,0.0480671241518753,-1.0470074612898683,3.3781550224145054,-4.29771893520374,1.3458182423975853,-2.8755398236367986,-1.8363559201165736,-0.4384951519443543,-5.660091579792482,-2.3296719380886874
103,-0.0266652137639753,-8.668927705065018,-1.8225236288146984,-2.4862360851056766,8.326859797119573,-0.848626811599537,4.868402357941334,2.445368396707135,12.659476538386691,-6.892645333393126,0.5794494676916042,6.782957587818637,-10.125363238488603,0.9351926367214494,-6.362231319057622,-8.859691871129936,2.834992820442253,-0.9806072502231172,-3.5150330279417368
104,5.155075859181755,1.2508618266312466,2.800417486525518,1.211847127054876,1.4649702899011237,0.7220712898926283,0.9809975959486176,1.650918528563234,3.338370564892849,-3.6888792760855305,-2.151445435873557,11.56819069629977,-3.197398577018382,2.468364477669234,-5.147506748874962,-8.279426480716385,6.872308776012401,3.725445229414083,2.6193759073559697
105,7.073271933007652,-5.502201184121282,5.211095151660375,-4.49523673663021,6.4117586381524365,5.971015302369456,7.569528413818695,-3.1788319973352763,7.056936899112651,0.9353029353492092,-4.976497774416758,7.730986363099571,-1.993076496596751,4.007970176966458,-6.338273764471043,-6.39084048648587,8.1435829431792,-0.5563871853185622,8.680157831399217
106,6.414406122645296,-11.48238163854539,7.275971757768225,-3.080193378429065,19.10992161823153,8.296317223463682,15.17643133691982,-0.4109789355736968,20.65270442120526,-10.472966988652216,-0.7789090318794649,-1.3830955557083917,-17.982724552751254,0.4229723199063058,-9.669787271798958,-15.97113119678562,10.251330285228246,4.199150822992641,2.8845395337449418
107,6.816835667752514,-6.394916494310572,5.96579919959129,1.1124672884389453,18.64874436595648,4.563776648139076,10.933491083057003,-7.84103925336524,16.336328305628488,-13.576635172019454,1.1135043132155626,-8.316108352230614,-16.161056639018554,4.819947334426734,-2.7811580466999994,-15.727273796411666,11.482178748960294,9.104984493508422,0.1626482579751784
108,3.243038454557088,-18.728802202563728,-1.2310552408352482,-18.20818207631872,9.79034876243273,4.878710036691262,11.724467631386918,-29.13631125547333,17.49750778470115,0.8553309019934838,2.281191483940117,0.7930763350938008,1.8296830546774423,16.219851845156555,4.951173116964927,-0.7008540943521213,8.768822699127433,-5.98366521426781,6.578671024702156
109,-4.115056724693453,-31.309418526628832,-3.860928406526533,-30.97936725555207,9.273862274711815,7.7903940048783005,18.71949268223934,-35.60046679585449,31.86001564526567,4.149408013300201,9.237825337158728,15.694990859706396,0.923322390711574,14.067054230642064,0.7945518907489006,3.4343343975432123,4.41708835317405,-16.077932227060437,4.906740322014549
110,-7.605091602135278,-25.17273610131074,-1.072179883651435,-21.47132768236024,14.579220142053927,6.130398336720485,19.26384379455017,-22.973795100327266,31.93692566515696,-3.631359064507538,12.073579071468323,10.69597862760584,-8.74308392499964,8.94355294982579,-2.0387312469105385,-2.230534682537483,0.4330048543276001,-10.651228663323367,-2.220878730746753
111,-5.687646153937099,-25.46033997658957,-0.5600501536520346,-21.570346659395238,16.2521709721877,5.292745637539501,20.2174275899077,-24.909114096212043,29.517265610425248,-5.211247103449365,10.854003328632988,4.362586958075738,-8.849678933533719,14.606377039448557,1.6908343849052243,-3.818918726453449,0.038977058938654,-10.79646333870966,-2.7011082643272437
112,-2.975266366228107,-24.19833377291321,1.923679068863112,-17.377878018777196,18.103146324131465,5.918082465118596,20.48262294025878,-35.51154045154753,33.461102970544104,-8.382865316218604,13.344581984627096,11.162234402950528,-11.767691886303831,13.78225447969344,1.0520902469678348,-7.661245224190054,3.919902802796259,-7.929050234960842,-3.6452194901792687
113,-5.220369195023257,-17.773233843264475,4.092227615256831,-6.089961340566047,22.497808289352644,4.997181024858226,16.782172734030272,-29.879644470642702,32.97960136047509,-13.592091373637953,14.042461926327103,10.653419750525826,-17.76039971327928,10.403373113860363,-0.9162250734954084,-12.905545680016813,4.520021200694171,-0.4900071022003233,-6.389114077042038
114,-8.812089875341643,-25.315866918035297,-0.8215559400964096,-17.500343508555787,15.75582498988796,4.888149484570161,14.784134399554,-23.79818109271208,32.24201629836536,-9.112175379622808,11.172875589834652,10.981750388484052,-12.660494223325362,16.404765203447493,1.5195226147236918,-8.99950695269411,0.7886630132801483,-6.841416745360766,-4.084943896169152
115,-4.005345659684175,-17.03458097871436,-1.803717205259081,-18.12666058781433,0.288917379480164,2.499622036078417,6.637936676311871,-19.722672286206933,19.87546403365465,-2.379949486630532,7.61854305367194,17.07312205814762,-1.1785563972360702,12.107788485464752,2.679608833531712,-1.563409577371679,0.9435586051293572,-9.287852070148531,-1.7539969756479277
116,0.8137421582750787,2.7765017650182604,2.8971173600358413,0.2368980217501919,-0.4295946935419311,-0.5721313439260567,0.2356101602809527,-10.53621911555005,4.842132993016951,-0.8725676771826223,4.007522506030418,10.97747123193863,1.7617135027332975,1.8617864921734208,1.2880231284741537,0.0200277055759437,3.23952818801357,-0.484586748918703,-2.043902970122806
117,-4.846553920863391,-9.56200387508889,-0.6113324444637631,-8.268333567430558,6.340148031308541,0.6631826099399465,8.687415545211744,-7.695558092124017,14.98260577673251,1.6512304950985373,5.455429715600465,6.95082419422431,-1.6735299114134343,7.516609828478819,1.65816793796529,0.1729752676628919,-0.0178962819652905,-5.221156316447281,-2.356724783003632
118,-6.79866139634769,-12.623471688147928,-5.688994687106913,-10.246456687400698,2.1019991900116004,-1.5210686275274334,7.318969953834947,10.6614636517728,13.639417432686624,3.178164983056319,7.137139087352644,5.500680534760382,0.5354150001771931,9.340566975985444,3.3823877569177947,2.2314076201896027,-5.216983407065452,-10.547499044874543,-5.359611182330018
119,1.4526558044532916,16.892163482670348,-1.5275412066211862,19.81969095784782,1.652420546013028,-6.48103450243657,-7.384407469051451,42.10451629430462,-14.225758003847512,-0.8308057852632409,1.1606532805086989,-10.101287212246058,3.7792981217431247,-3.6296403408963256,2.9474274607613395,0.4677689654176706,-5.083227563023579,2.284823465086776,-8.322004064605983
120,5.1941944586070194,21.946636955696903,0.5616778846343582,25.006910125123728,2.749197477542041,-4.826691316451278,-10.108734313779689,30.87232983218745,-18.4661152351838,-2.108702727966082,-3.1424742064427043,-10.52241720195593,2.094595897301873,-8.546573386216107,0.9161831106741678,-1.3494157074292783,-1.3642859242524272,10.186597617427411,-5.335124380383343
121,3.963025788292871,13.07598477771004,-3.5820939689769693,9.545966451555325,-14.944572791855784,-3.199250768766923,-12.61490960961594,0.8396748816599733,-14.128368643947011,4.242538088816042,-3.6083511261016543,5.46142868124768,6.369414783507955,-7.813968697241111,0.9757257787988254,5.425294298137974,0.1738274851644572,5.533865638574095,1.0428632161830012
122,6.468141739919407,28.20929477243064,-1.5129947879412855,18.271917538442185,-27.703411446102304,-5.323994773067631,-22.59346988841553,15.316676039517349,-33.79294027510645,7.795565914941076,-8.782493090840074,-3.3571670228035595,12.842801492128803,-15.349880493264758,1.2922562043394787,9.306300625323988,-1.6528097255792955,7.390598309600364,4.914726598039934
123,7.620426440471873,38.63387886137398,6.139287046196912,32.7443275987516,-17.453676169758875,-4.422655166933887,-22.215346170302244,42.256774351973846,-44.02470686770365,3.40928817929007,-13.409238420885949,-22.24119832018703,8.509582438237423,-21.33646986738685,-0.2058705183877212,2.438380383360877,-3.931465242292033,15.749986043573138,3.259896101070546
124,3.240166015445008,32.73812194776298,5.042486913369677,28.27911591841032,-13.775208867014191,-3.762803622379532,-19.3114253231347,37.61357048390853,-41.67709196856261,5.496266656894829,-14.484456551924598,-24.26825763477056,8.65178113914404,-21.071061897334644,0.4158857215964904,5.634813156870292,-6.649266558931688,14.649429505766914,1.2324812983439737
125,-1.1012109178362766,27.34251449979901,-5.607547179689408,11.504368079243983,-25.966584959776025,-5.826869189826724,-22.30654425068969,24.050367094791827,-48.62175445783561,18.67016581036596,-17.174036638454982,-22.1364536504922,22.261665406504093,-22.703588730995047,1.8198863222725823,23.642283998362387,-11.569748605196263,2.340914116028455,4.911058838139433
126,-1.8124107322277003,24.371878149790653,-9.939989206886104,4.459530213996285,-33.34302104497901,-6.42531665920694,-23.876639588823068,21.780676047789843,-50.72533254186431,21.413422737136877,-16.810596398613875,-21.92679048977362,26.05392744913617,-24.59286787698493,1.0838947477728451,29.591272286974608,-14.177296885915815,-1.0953662155170858,6.241422082130166
127,-0.9968540059188432,27.02028469697922,-3.7703355698725702,18.737439806931,-30.810372955102608,-6.355724859608562,-26.87566525645787,20.03308730836414,-46.727554280337216,9.959815634108889,-12.331340729632492,-25.187835923378348,15.342538176945284,-19.701372642827067,1.567272584220488,19.179088014829457,-12.005014887984622,9.439941534171467,1.127570502189915
128,0.2457532540982434,28.626184029688925,-0.7301340699693926,24.08759817704216,-26.78767275570367,-6.2885899050718725,-27.94898288058786,14.256526390715518,-45.89487016208669,8.844452940653035,-11.757620357167688,-25.058374459634543,12.914358203627216,-13.344803724518195,1.2621505019925534,13.745794932330831,-11.618242283962667,10.761437637123652,1.5402469295059769
129,4.471573952936273,26.6008188519312,-2.4884010289971976,13.19037358833632,-28.417221279669917,-6.722156964081054,-25.990627274771324,18.52066794373342,-44.90795239497256,15.871965792284623,-14.95250653606818,-8.19196817718024,20.09590004755423,-15.027031854259697,-0.9522637056611536,13.506466109323128,-11.70663361266272,4.880959243787672,7.795230948252843
130,7.468040687604556,28.65355947563044,0.8147384868878227,17.21415921815788,-27.3740547713898,-8.29493102857834,-27.52864121728405,30.44350406919361,-42.239000471324346,6.238461286329389,-16.199696838923494,2.096023988785096,15.99082993228492,-14.825782420698346,0.6588978594860553,2.987006700477102,-5.00204014517838,10.60270625706794,7.663828103155626
131,2.703258597341197,19.65161154256317,5.639339337069627,22.982827626159995,-10.877555999050236,-6.977120365349953,-19.78061256798317,28.338498721609824,-25.006412284502797,-11.380891701194724,-12.05772072731734,-2.9795658585261062,-0.7913164814262696,-4.03384624545383,1.6202636292182824,-12.880044840900783,1.4216789360869164,13.814946182276744,1.7918489746017077
132,-1.1340967332861194,5.288288023060533,6.032436791122059,14.913475817380244,4.257484539778631,-3.735653113462519,-4.6400054196729705,19.21922427092897,-1.9495062736920452,-11.706109892076764,-5.263647953946061,3.7565676552901817,-8.983117260356238,-0.8319465631319973,-2.2936617436413966,-15.017270256132496,0.9005651331232212,6.577544815920284,-0.5531239377342141
133,2.194899631987033,6.87561552601127,5.37715098618931,10.345557235188943,3.180566181602176,-0.7727570968808389,-1.091072277175032,11.766229849247958,-2.478153888083307,-0.0380717688112644,-4.541261511155306,7.869686254072233,-4.305099389298097,-7.774913290639234,-3.4261926976454604,-4.794536275465136,1.4061928195894944,3.2595758314381063,3.8905927428842464
134,3.3271121140113964,0.4870350684051727,3.8973798521722105,-1.594574587630926,3.206491713102159,5.103676867029376,4.176793567248334,-7.243931524624952,-3.569919868112769,4.977096881886295,-7.605727107560608,-4.974240892568068,-3.47583237843505,-3.4873926454766915,-2.7838338776775364,-0.6923692667537376,5.576570738377958,-0.6889973874756841,9.631114360556296
135,1.8583473385598503,-16.530259619699194,1.3256289134033636,-19.815740538457945,10.219684140280082,8.714639320274882,18.008352454005408,-17.544297144229247,17.39984854129575,2.66952177624235,-2.5971974119558894,-3.5276878848655766,-7.163348772513972,4.900640251524584,-4.781906995113582,-3.305829030173058,8.485419967328891,-6.499929760864573,8.57780291296977
136,1.311306575667201,-17.32930531592848,-0.6860547649703026,-19.845682200993277,14.254308410108496,5.280390650876597,21.555511190657157,-8.655165367248474,31.40217899109441,-0.1655754916327012,8.738905641392192,9.438269878728772,-6.043694964926241,5.359418452779453,-3.8863938048329487,-2.9287349669758957,8.994913001691787,-4.827959540707953,1.5223245906470018
137,-4.177115716204103,-24.339253660867456,-4.486397833883256,-22.10313770310681,18.261449045032112,2.7803963720515297,21.744764728791488,-17.828673986209974,36.53724256333357,-3.1727826681661995,15.344862529478409,10.919082525093684,-5.305967155020008,14.05614692148442,-0.6313950737997152,-4.322493199370815,6.014345999773552,-8.167704865714395,-4.68812337958431
138,-9.632596001304492,-46.93169988801493,-6.820812261659394,-39.22116368057641,24.51181048008093,4.626995274506807,30.06094849400272,-39.67179656746152,51.1364564697632,-5.162913298557062,16.50004209195077,16.673471092610182,-7.288903259644322,28.799124393934267,0.2394104985091791,-8.190317242557185,3.064246961540236,-20.9333640949572,-6.672066902823237
139,-9.241666667494671,-55.6554307447622,-3.1644916834791115,-45.400117155081176,32.241931344414624,7.269386745510996,37.37892912671447,-46.56406432175152,67.31000328731648,-5.817407966363325,20.940158518957286,33.177701594614035,-9.286336864289929,33.28813620762084,0.8751970932399047,-8.137091582102968,5.368396448891359,-26.961525699355025,-6.843615831732592
140,-9.865185201083534,-54.36530594447663,-0.3158255036829374,-38.95549545797073,41.2118721160023,8.909179866163846,41.11255959699912,-49.39687996660616,79.83571626568508,-11.095835816169377,30.06214034511765,40.15708093190844,-16.194425863284486,35.43967646414215,1.9363847057241117,-10.223485494941826,8.078493163140976,-23.76308605034864,-11.272126892789997
141,-7.353644297414608,-50.333870010674666,-1.384383137873327,-30.905792358906325,42.47277153898644,8.256015555230796,39.91787320327277,-45.160194281923886,79.95235646478007,-17.119265357621224,32.425993405155346,30.70755606844549,-23.243834263341952,36.62409183398504,1.873608802951927,-14.212689742694389,10.46445291492342,-16.074926267493964,-15.646632387406363
142,0.4783215211636307,-44.09337344210212,-0.704809275777138,-28.03712548910774,38.96675585716336,9.741838323686023,36.389728580921656,-43.23477210555252,68.7842115204053,-15.527657242495732,26.611737550223623,18.39777908488305,-25.09966562432654,29.6449068917776,-0.4130891090867079,-13.440088578233738,16.721127491080033,-9.239654536585048,-10.69884330096194
143,1.0484484349294867,-52.20690893783169,2.746621540909468,-33.915227364231015,43.58775136180072,15.596541766339952,41.38653009599518,-70.45298382007188,73.98967043647457,-17.212814650088596,24.94783476151602,19.43916568367976,-32.41773059562209,26.21758215656841,-5.132692419496513,-18.87980618469316,19.69365116342966,-9.655192950110186,-4.990443763439924
144,-0.2774096921822675,-55.18736384308453,7.04914632576477,-30.112718084096656,47.68978286376625,17.549753595401633,43.891771224824375,-80.46971892588157,79.93659890013858,-25.6310580909856,23.02635902782714,24.692694629582707,-39.78943196708169,26.09430321971113,-6.971447647790789,-30.03440036091392,17.47638266571719,-9.0726033791465,-4.279149488553518
145,3.980117901741443,-37.01443644145054,8.314529118261607,-19.14281411266407,40.77389923614595,13.89569908315464,33.111650776005014,-44.898317470183066,58.552133776751056,-24.110195570479256,13.086457315879692,15.792319293392232,-32.47239392650503,19.986403875803887,-3.5399953130160604,-28.212590448988987,16.624697546182567,-5.339332990283141,-0.5806222399013397
146,0.5493271207190791,-30.86370869003889,3.527099777772332,-21.69840096138906,31.01483565864047,9.596890611819845,23.776278827846784,-29.21273091739515,42.74617761693086,-18.26694097988828,9.900388732242996,5.015905216464837,-23.892730422472525,19.753094850615074,0.2195994291456344,-19.7667340668686,12.44780227522956,-7.439125147352756,-1.149707741098586
147,-5.959742977355002,-31.276236846290804,-0.1499126691248693,-20.25156083822675,20.401335265865583,5.11775297219778,17.640786777568156,-41.61009191479736,39.00485806651608,-17.92894664044673,14.085592962771324,1.7644109809883932,-21.28451885234217,20.39015581174924,1.4769650633949676,-15.146888877686576,4.618531195826893,-6.83220220969574,-7.422903745415123
148,-1.5561776825396507,-10.739851319472738,0.9520803965420452,-7.310320632213567,4.914246040008342,2.9615253522397698,6.232259291812115,-27.437432326854776,12.930914660574818,-6.33452206651357,7.321540037132701,-5.440127851565365,-8.253440317118908,4.118414078772545,0.3268676340949247,-2.9219745815222438,1.949164683071372,0.3220972227738668,-1.912974197404718
149,2.1994167902783777,9.871060333331464,0.7678174138860641,1.445652856538978,-8.400907384467738,2.8120803630650597,-3.821282102935928,4.365578958185131,-16.28518968706055,10.54988699841267,-2.9891299580145283,-10.403287031729764,8.143886696688709,-11.091364600289989,-0.3722963534073171,11.018211862423149,0.2009372003961704,3.812469243970455,6.652205411236389
150,0.088053726777532,25.12729527998729,0.4314760491400582,18.676703227749982,-17.426348160244068,-1.34935320825287,-14.777982999728268,30.5977943809304,-31.077225863518244,10.079025621241795,-6.351185304261533,-10.86424637490214,11.426251033616731,-14.52489874173131,1.0729647056085423,12.073005193450642,-6.057111931699291,10.544561041045862,3.032055492645489
151,1.1962401848293265,52.200854742965866,2.0256468483134,43.66414532438482,-32.413942353981255,-8.575096533426704,-35.533867969231935,60.70584720382568,-59.67077503130539,6.034748793374259,-14.646981241030986,-23.072264647390863,14.495845085431624,-24.48659267018914,1.4422235766551612,11.692951748123502,-12.696386779070432,24.73007376366937,0.4473845969697017
152,1.3173202689465349,76.5901718418973,0.6774333012827967,56.93603699586396,-53.83081477437749,-16.002671990829104,-57.14934757030299,86.0306251490017,-96.17181358226716,12.89903799150213,-25.66136177121978,-36.53292557346494,28.660206355082018,-35.77839416781416,4.014973523649754,19.570756930523096,-19.982783026109622,31.989365383010103,2.151368606731708
153,0.4744868142924581,90.938933051665,-2.5372430387621776,66.24153793392355,-72.52715833867856,-23.778552621987764,-71.63594554529693,99.29059378035733,-121.16997821821217,23.76808657345417,-32.93818012282572,-36.287889033279846,45.68292811490309,-43.642234164756246,9.013242168006409,31.71526478078713,-28.092761277711887,29.01252237083013,3.232685799880389
154,5.727616810134595,106.53415197954436,-4.467338391822807,73.83152173245122,-87.76419793200478,-28.683301542574625,-84.6475749103945,112.7020406140738,-149.37369604923262,37.5333204277653,-47.24483664294398,-40.619586514806045,58.15171241998677,-63.23303045454667,6.0096130576628966,44.54838225286761,-33.08704501815483,25.477222693864437,10.789998182923991
155,8.772525025191626,113.82820733580684,-6.645840434804004,72.95968775478892,-95.51677219607755,-29.70472648300925,-93.18975383336245,118.61680816716216,-169.4569614130808,43.39757951782181,-58.370389070658064,-52.71521402830097,60.31184394941369,-75.29580422565026,1.4513742763189017,46.86353761333188,-33.675103560335494,26.21308963617768,14.64627388239834
156,4.669369843887601,100.58021880808182,-8.21636901715561,67.23574308883326,-85.84213697447355,-28.109529692196507,-84.55572660141442,103.98054895560946,-152.93957497327142,35.193218556518666,-49.54448031441197,-49.38596272605285,54.57925510607271,-60.33919226927052,5.640142276847609,37.98950722585091,-29.752024717895004,23.675565094446767,7.849115768393034
157,3.7164345714843456,80.97666426229651,-7.451858614350558,53.79787345958914,-70.253784191508,-23.065850121935227,-65.5181000770564,87.28909351609786,-124.61999067175344,34.35806708043384,-39.35113985446742,-36.1055096380176,53.99835970623046,-47.762717864932426,7.851129747467365,35.84742231681284,-25.370590448722865,11.42652426661952,8.466012573704557
158,9.45141014708322,76.39659217784077,-4.59795773176757,43.88847013538084,-65.28496020214476,-17.47468342065362,-56.42536896595719,86.39525716299292,-116.05366089162598,41.43778875975374,-39.9542018387113,-31.729845005289214,57.797790838082335,-49.68311370021407,6.81180140067819,40.02436629391089,-24.21290672049281,3.7457387867048864,15.170192924363386
159,14.212123441342053,74.69477714533974,-2.614952630206227,42.40113490676458,-60.633028502369314,-14.458699703566031,-52.84236989052496,79.95017709808924,-105.63657169266054,37.676080211124734,-37.01904339247191,-25.522852246221152,53.77159910145999,-43.79674659070993,7.209461308741288,37.108645898829984,-21.985791104268348,4.023589217825064,14.302268138552108
160,12.64732783548107,49.018791131348834,-3.687171970190922,25.716358107651477,-43.03560906019824,-11.830556429861597,-37.81452664973041,48.83370000422395,-70.93349990915739,25.338676847579343,-27.714733636829735,-11.545891693857175,36.30159342925365,-28.622256962189663,-0.0300322228794343,24.742242679023068,-16.67629583578558,-3.3121627010520687,10.401659791538949
161,7.910566591976215,11.367848323251268,-1.0100322863430884,4.4929797301500365,-11.909587604462722,-5.012666106373116,-11.92470929571326,8.635904957341474,-20.596489842141978,6.154455339654506,-12.447645437282908,-1.50061022141587,6.27606375571488,-10.910826338234964,-7.18981763042026,2.5569771936120413,-6.1833392857253004,-7.072738787954762,5.279747991671426
162,1.782617885584635,-28.58091553904848,4.905508856148195,-11.779191386622577,30.0941215996466,8.866805507207932,23.86283082138217,-36.93925097267884,44.78422365735335,-16.987275462274738,13.419681341930085,15.388170533536346,-24.897796101085717,15.994311280487397,-4.604879982630046,-21.46031879153064,12.85967237911994,-2.422616751164436,-1.4267162209704756
163,-9.580115219945398,-87.24680953756706,2.707425992452187,-52.00078153038412,70.0509138665474,22.55729069720519,66.65108016945275,-92.93733319370276,122.84155345781976,-31.91053163849789,39.337761159829846,44.218471249461786,-48.15829729513256,51.47579876352589,-5.959132991513776,-37.61217928029561,29.89593770617351,-13.353335943728418,-7.18904693349285
164,-18.41343893823613,-139.49096081186082,0.0062711753441746,-92.70354026948826,99.95181477564908,28.228018014909164,99.58033691437934,-134.85196529637233,186.9203420776616,-45.87455674905209,57.61613911079992,62.27216856680538,-70.01978041292905,82.32793956608165,-9.890742945739223,-53.41080098490298,38.42052594892365,-28.36233160727495,-16.063101206346484
165,-16.114119172021688,-160.41943728581026,5.456198848551464,-104.97063091046256,125.9633615913014,32.80008708728839,120.76168436579592,-157.7119386594487,226.8202662284138,-59.67321687707977,71.19016988044882,72.49987689523684,-87.70210935518492,95.48078358951736,-8.308739872637272,-66.43801270036728,47.32813176503481,-30.706649312179373,-20.80746639026262
166,-14.963288031823726,-174.16204329261785,5.35112139400141,-117.25490521693132,140.70771089766004,38.09427213120168,133.73808314174815,-175.75152074586745,247.95023049447715,-59.67431919337372,75.04689749454805,83.44488594954298,-92.98341255925024,95.0497256997483,-10.376718992699974,-66.52377320146687,52.697033564997625,-38.04953148290112,-17.1494290302568
167,-18.735389582283567,-169.4240286681889,1.0789559736996956,-114.47414472978706,132.8588282458302,34.84935584258113,123.96042563446844,-162.29950139382828,233.9243702731648,-56.74635534095594,69.05666372113407,73.4557584747601,-91.0325933209846,92.27405429820864,-10.16907123048017,-62.96980715490828,46.2458214655168,-38.79450811122218,-19.177968617978564
168,-14.5013747916507,-127.05757020975857,3.9614293466866286,-81.67219708540449,105.9899741674464,26.91933099266138,95.57600874334209,-115.82841225444656,182.14143322544624,-50.81574829260022,57.93920348435442,49.19518007395197,-75.22523650596915,79.11341477808348,-1.5214591808504905,-53.10245011696203,35.272604459508635,-22.839301714331977,-19.428111837640184
169,-7.121885104370151,-85.9758146447029,4.225976140166765,-64.16656346302193,66.85343716406754,21.66285593656174,68.97139584688638,-85.90964495248082,121.63874277242,-26.86427407338876,39.13291757705905,32.43124808249504,-42.036836400601466,53.75091654591844,1.6513290343478957,-28.14116483204228,23.498097201113907,-19.51725215479287,-6.322837359201756
170,-5.192320055092484,-52.4848157641959,2.2651268977542056,-45.90269957564482,33.09394822089662,15.1341286506643,42.54954772307714,-63.23228285508689,66.92818424485148,-8.118984653859602,21.82987886576504,13.2156658905831,-17.758093963465193,31.092446297165772,0.9011660997549332,-10.27852070521823,10.382154206200594,-17.935440016406474,-0.4024312456887244
171,-1.441482284442475,-3.5452242050424574,6.719775441945014,1.4569071365940052,14.310153072834783,6.4689609086273965,13.314365780938523,-13.066402974987223,15.525153649313475,-5.086231959889428,12.764726643816172,-2.5239046364775315,-6.589261247085526,6.586216099035896,1.5811642538993589,-4.8623354211170025,-0.1313993507346857,0.9303902430455422,-4.985208014766217
172,5.5047218375748885,36.37560983962181,5.817798225081997,28.01608798978497,-12.235341301881856,-1.535379198253063,-13.508992971666393,28.12421642429261,-35.106748633652366,9.504394054068689,-4.805413573279496,-9.969401311747486,12.877821252963594,-21.49787514314401,-2.146827451074017,11.27143564030187,-8.480321388496977,7.1118190798569225,0.5580452007904997
173,11.407127610158414,58.223861103612286,0.1417819348549155,32.49156349352755,-45.3549739019636,-7.978373148698504,-38.63379384019391,38.09980420190909,-82.3063886266167,26.60550837678482,-27.760862529139285,-30.73959430959973,30.635223488559763,-34.57930250899563,-1.5386758511477252,28.19697835904684,-13.286287321485757,4.982175551155988,10.22868035006996
174,14.032209044345615,77.69613034462503,2.1126967822976344,51.24520151363672,-55.80040089065383,-11.579358369930334,-54.72890343827961,56.17117439375773,-105.4390326553744,23.503007602520768,-32.01152181530034,-43.952142048026445,33.28789825771239,-36.710737543754085,4.867945563017402,27.10432507518334,-14.223894129104863,19.30868938664756,9.85412037260657
175,10.345122217296932,83.11213310001783,2.802183484195396,58.39253616728233,-55.42443891973136,-14.99787364837645,-58.91746871724098,84.58009873805739,-104.21209680142006,17.555399317488234,-27.666871410267277,-33.3170057998128,35.597233500661005,-41.6187311045604,4.151173919239824,23.683392843077687,-18.75918417273912,26.0894247961695,6.071058870274591
176,6.795453958391581,79.37693505732902,-1.4528948098040662,48.58307682401651,-64.21191780410062,-18.50697286638944,-62.51794771501834,88.41446918300898,-109.28925065572244,22.65379427214553,-33.87384799734554,-35.36561985690505,42.29102527338669,-45.30696261733002,1.7713223164598304,29.26169245445717,-23.82039522202074,18.04447469929807,7.519530019998895
177,6.704326550736539,81.41741432513331,-2.1913141310580397,49.907224279381055,-67.10271166709515,-18.508905860155817,-63.78105032012256,74.45343002536376,-115.15236760036636,27.311377193559856,-35.96186322373747,-41.12078295339551,44.00655280017764,-48.30113561359331,2.698717303612675,32.92167176018812,-23.27333325745783,18.26495144485832,10.199469352469858
178,2.753900756263068,78.39849085236304,-3.20826512535716,56.25892719280256,-61.92719472791619,-19.11118795529499,-60.78744213822135,70.86901737572678,-105.67264711450512,23.095554984938776,-27.343500498249725,-31.0264812411002,39.41268905960921,-48.89576616722978,2.962489454659167,28.78617908510901,-23.06966966318175,23.31777478491659,4.912873535032567
179,0.3661689657242597,71.07516813802482,-4.972219262949604,58.94257994560905,-57.67986970058912,-20.948362905496,-59.38892924433976,76.41588327292072,-98.87439529601812,16.99493486801091,-24.56642930776941,-34.59589828603416,33.73021783294134,-41.38138412055774,7.217028268311889,23.605379906537515,-23.77350298912969,22.202501027764733,-2.203105510487781
180,2.929823250688994,61.39953776887043,-3.90439389433114,52.2643683374662,-48.88611588840567,-17.719246560554026,-50.149647934011,77.128705899831,-88.13423564176131,19.85676452407697,-25.5287353470739,-32.408500831640424,32.542770172820084,-36.15162505540109,8.775457180168132,23.26507384033911,-23.06317278260501,13.212177562791382,1.2790396380259883
181,1.473351483173281,47.031107425136206,-4.359361231473774,35.08599182492908,-42.67292832789629,-13.39294392168441,-37.49724870327927,69.98588567093746,-68.19992638248024,22.81256794473513,-23.271652079584896,-10.081470436322173,29.85538253480901,-36.59021932465202,0.9419369310966008,21.74273702503688,-22.16263109161304,4.7599015190168,6.325266762598705
182,1.9498144419659909,43.88723277317455,-4.235746494282717,28.0780844558268,-42.88644556681174,-11.3834011626206,-38.64345929077803,51.47258952335341,-69.33779100310186,15.620326479909613,-27.343230683323632,-20.5762031285414,18.730973909523684,-33.427010174860975,-2.22699238211018,15.0883126495186,-14.839750745925404,10.84510394624701,6.032605320247242
183,6.454866495364088,37.57125614525778,-3.237568163413106,22.383856932785505,-33.4890100143576,-7.304474495410299,-35.221186966408126,25.481114136900366,-66.1021791328238,11.211889619192654,-29.50433151834293,-35.1902690708844,11.114341162011511,-25.313048239648143,0.5206622111674246,10.806936219317336,-4.345125027441275,14.071469046515126,8.319748588302314
184,3.49833641961788,11.48356683254854,-6.480630139569345,4.861089984677374,-19.600836575779688,-4.724262485057101,-16.43928405167198,15.68278090069603,-28.330192221268074,11.171342437720572,-16.567250390387844,-1.7721377090994537,11.519681659761906,-12.817021063482605,-0.1852121506483175,8.56157904281098,-1.8645657610036244,1.6360810333394944,7.87275981448646
185,0.4053126408142695,-0.7046200872344914,-6.161718644180345,0.2780851255010796,-11.445002810154245,-5.177044294809286,-6.313208241874345,18.087257366800213,-5.297258077439604,3.828428307862267,-5.651739779748384,16.350517965861503,6.750871563127259,-2.168631515056004,-0.2228813638185875,2.8438159332735244,-0.3547573676471689,-1.1144769945514073,1.886573019693083
186,0.7535483366848066,-4.532367364766122,-0.7182491165453839,-1.582944072099265,4.458090531928935,-2.065203704586943,-0.0064103717226893,-2.63274696383371,1.9439844146400944,-5.008970387087744,-1.9117891755316256,1.577118267348577,-3.9246252796156105,4.90597895124529,1.1406651014202476,-4.200780287086244,4.828813159024723,1.4645667881036184,-0.9668481586935898
187,-5.3682693444487946,-28.393404579101865,-1.1371336034958237,-20.347974765044757,20.10740992198325,1.5281904342138692,14.852544250474036,-31.47057841203551,31.18376771397393,-9.82857466125948,9.238071877830938,11.792167281946549,-9.545219157940794,20.225577856672285,3.6201077667134127,-9.580341634278854,6.49347852079547,-8.498909966535418,-4.111536070209978
188,-6.934042991555046,-37.00865382863398,-3.0836216277235704,-26.659900850298595,18.778546650907035,1.94091599095994,19.70757001553937,-31.58936822925912,43.86312346265576,-10.888043640542906,16.58425164720285,25.73426118882495,-6.892342653116643,30.847780296419508,8.241129455202035,-8.92486981336882,8.854851175743491,-10.410145021667375,-6.450980085741001
189,-2.4306669035463986,-31.295396837266058,-0.3773749091918001,-23.67389572122193,25.23598734387317,5.386092057977184,23.245940549786717,-28.05152950361001,43.80999155729317,-8.558783674546799,16.62055441871787,24.125473271082285,-6.741911659679067,24.953555558909464,4.155916167830069,-7.387474379464058,12.503298997657122,-7.38236401835448,-3.93403905904142
190,-8.24609489534969,-52.34455785009472,0.0523748385268252,-36.25767114022922,46.9140583758122,10.355296872432804,42.19784902048569,-40.35558277400569,77.46687556592525,-12.377111648608826,26.542524713678063,35.045282358359046,-17.584414682809204,28.652834992523992,-5.091359169980098,-16.280257493187904,10.119791321725668,-19.22753071756753,-6.8632600115841615
191,-10.813323430226705,-62.348713830257225,-0.6841111643572084,-40.29918641057857,48.896632992350895,11.113874366038385,48.62962866158202,-45.0866016558378,90.03205152677245,-16.513160984412508,31.886815180109476,34.76691433601362,-23.35599484553505,37.20576010782472,-3.933459384362072,-20.51382415791545,9.107261438180956,-23.01774883859978,-9.125612677004364
192,-1.2230086113907266,-39.722509176190016,3.183244133235169,-29.26972963490984,38.13399602417744,13.023214389521026,38.950203577870205,-50.182922966863686,62.81140529693022,-10.95724957774645,23.141425742791093,16.530231865456166,-18.55771918329146,25.716787339208867,-1.5965167709501298,-12.12630507809422,13.79947037228295,-10.495664614219182,-1.1372142032587185
193,-0.2350540280209863,-36.0751611034892,7.573310627466402,-28.29290842149049,43.77369185092229,18.667274647417305,42.72460208582015,-61.91318953216306,65.96835881169294,-11.179324789159107,21.797396038749334,14.1208267311141,-24.182425665893376,19.224959383127604,-7.357002659148154,-14.327728323323356,14.746744605106093,-7.040197229644502,2.077164905588006
194,-3.695765146791551,-45.017276102020745,8.455990156500594,-30.636570058356916,44.08985540370712,19.911095625413743,46.06686141540895,-57.26385568700097,73.85679276473702,-14.61807102694685,20.64546218391572,11.16259836946448,-31.1773133485028,26.341169548961627,-10.194646683236552,-19.979128099136748,12.248650138066726,-11.192373578974426,0.8013375102338891
195,1.6976641603811586,-31.59871031002335,7.843010471171074,-22.69475015550971,27.78813163236765,14.695775054734272,31.84401856708373,-48.65197209881438,47.99286168326656,-8.708063401039608,10.687432568368251,2.612544830180653,-23.407487030441303,18.968275602521395,-8.218198088707892,-12.864322172070766,12.938686198185083,-7.486951146013334,3.2122504449062035
196,3.327478308432112,-19.257005329672744,7.382735746387743,-11.095117467771052,23.687864659434947,9.474124072684548,22.20445192277257,-38.753364887790745,38.99804216073727,-11.007794884755004,10.30728939503749,9.602421584294497,-22.05776894171315,9.518267332032234,-6.446040795304695,-14.897804606434065,14.27070145984234,0.6014493365359659,-1.89222627166041
197,0.2629002795646805,-19.56859551301853,5.012063994442102,-6.96833232433893,25.2117365257302,6.977732019464243,20.05943935031291,-9.948049974520458,37.77508042660829,-15.223091841282177,8.516143440965283,5.960294762580571,-23.883078319088973,13.008826078657208,-2.821644585076755,-19.96725442642918,10.682632315573676,1.6323156804405743,-5.7290159251861965
198,2.065970169415275,-15.698610718222865,0.7685389454734639,-13.791310642785936,11.054212601049874,5.640249351138148,11.404894493000386,-5.0756525694502965,12.72591624088747,-2.6680499934466955,-3.44041943678828,-7.931289556892306,-9.934328934963055,10.28917656753693,1.0439228666924645,-5.908748931906397,4.035198171447407,-4.822500221647095,2.3916102536053208
199,2.096000175480091,-9.509767711196458,-0.8512510793741548,-13.421075066558972,-0.1725654201326301,2.562790454733094,3.2511981646481773,-27.199072344245984,3.613627495407852,0.2413240885471237,-1.3649813693710795,-0.7802408650014239,-4.41093880145146,2.118900991486964,1.480463017663344,0.0112104337998233,1.4296193293745492,-3.376008942400581,1.5200330582413153
200,-1.4205440757503096,-1.8864193192298095,-0.7379080117694938,1.817689977182499,0.812142890955605,-3.56908823095032,-1.8476368372029084,-7.115764947116801,5.04671814442609,-10.088634639839196,4.631906863623372,0.2160475673354946,-11.120430587238229,-1.5584450559949188,-0.3182925692751759,-8.571923152986932,1.350405441986969,5.688646587421551,-7.563414948603393
201,-2.411325374252076,8.294810757465847,-1.6731835861590287,8.754131222334689,-4.418281589318551,-7.043778009458046,-8.89803145764144,25.28319732502019,-12.460320706544142,-3.436440148100178,-2.4191083992097413,-11.138295951105649,-1.0457587040305931,-5.654059542657695,-0.570585834950446,-1.1080284250029075,-2.661827029585628,4.517103366378519,-5.380562625427384
202,-2.2803532316719477,12.615262757293644,-0.2574995996864164,5.350577166008931,-14.619050093027605,-5.060423560711582,-12.212247995745503,16.80606654832826,-18.47353964425767,6.735160235587081,-2.166153127744035,1.743548088944888,13.336241989084597,-7.147647069562859,2.214707948539778,9.460007347743243,-7.387110116671916,-0.4140729616858719,-1.369725567392519
203,-2.354001607432132,13.308463779078066,1.8711086309192448,8.616864962831142,-14.75459098963466,-4.477898651979512,-11.83665300590116,18.016665465336416,-13.883162122702728,3.589138196849206,1.75473943659714,11.9231036772867,12.893064818473352,-6.480487467312984,3.1139320175148044,5.004108570786404,-10.033003802475406,1.4257263993796738,-2.37431642840447
204,-1.8789664023698156,16.103575585615765,0.1924402561597631,13.048751215722689,-10.951000138725648,-5.724973321830713,-14.199713860797289,30.757869074164145,-26.223980325866798,4.971428021259614,-5.83686711075529,-6.043931839478063,12.187417508514224,-10.063585502529808,1.6670357531761582,5.201891809329505,-12.04680236859838,0.7072292871226429,0.1589057130600979
205,-0.2055644979209527,20.260149307131748,-1.9138220179175132,12.677425556781206,-19.536421908739094,-4.655762794020905,-19.22384296258015,17.18249915738793,-38.030405980011466,12.055427329885962,-9.667109759406015,-14.423187218960162,16.203430293177007,-13.09021203837591,3.823595854632029,13.62820594381732,-10.404563500724215,0.272039716004032,2.7222674856737505
206,2.8780351082094904,26.03173666452543,-2.731210260216819,14.294305691773031,-32.10703445535285,-5.725486184107832,-24.329372591503635,19.99989196113293,-41.27975233764878,12.990462776740925,-8.478102242597917,-11.929793310557724,17.150304805972496,-14.409907568784902,5.778705439478836,16.263275251824474,-7.427425590144725,5.680072676823356,2.821318057479011
207,3.948243250707324,30.61616892872873,-3.810367838181786,19.97305641969788,-29.698882275739187,-9.143639035452264,-26.802765918303127,37.91639046284181,-45.90334537341321,9.26366951516926,-10.809885703656958,-21.039781021582577,15.377098624226694,-16.626149587348237,3.866919056543895,14.208799531838793,-6.900900189865306,8.67904651439206,3.1094915179615343
208,3.0610859716605034,31.435772024192783,-4.906067612314575,25.761734814172183,-24.29753715963618,-10.04390363350827,-27.54304627457602,27.103957991415847,-46.12023678015186,6.3577185577200765,-9.53293054299929,-20.791928782265664,15.15214457232586,-17.04652135803576,4.435798861940087,14.007690285816691,-5.880505005810468,8.921033187047291,1.2353397956614565
209,2.7341867550049344,27.629792759103083,-6.650197106183196,22.86936249854277,-27.967704483777474,-10.73781909043034,-27.263345392689807,23.43459296824048,-43.27963589201631,8.449867102628708,-9.932634802439557,-9.058664873154733,17.696366469442218,-17.138588738138363,5.367163941872668,16.214929646061613,-7.95368194445758,6.765198304824578,-0.0423825079488136
210,2.5423281853119164,20.717780220600485,-5.807262510780005,14.209131884556845,-24.7836537228611,-10.160885025537578,-21.84874884054568,34.84072625534029,-39.0506190667099,9.931109924886073,-15.420471798540756,-9.64128383003725,15.641207564786676,-16.90849781419705,1.643759785350972,14.813997867417587,-11.592743543613732,2.688584982991377,1.800540470348004
211,5.2650913067021605,22.25523088214221,-1.8984562610104307,16.131830302481248,-17.799386610177617,-6.364019987975308,-17.386018336338843,22.746271881437863,-33.313389137188,6.020438794193138,-15.13038526218805,-11.65735939986546,10.303673991928823,-15.089741672284989,-0.2707128282659257,9.14742453955126,-5.370824635199404,6.985879596289696,3.1262341621605465
212,7.941927937458173,28.187907526104357,-2.234294737635148,21.15048006116753,-17.098691169273465,-5.292952775357728,-18.671240988987925,10.630651674288782,-32.70127981794481,4.572887268763687,-13.013851186615057,-7.056077717391489,10.002428051025204,-14.467374372667472,0.5382012585090328,5.8354200885864085,2.0570166820678883,12.98734215219588,3.146340336257939
213,3.02652910265829,17.504699459860987,-3.5494552791168883,10.897926194136195,-8.421525981297119,-4.5837858664515325,-13.341755314379292,10.215916351832345,-25.760507259197617,3.9311853569857416,-13.174229900204594,-10.743563333870856,5.5232963529927925,-10.155785714129808,-1.9833823296256676,1.692902507578804,-1.0919923327342915,7.79585612260116,2.54964548732048
214,-1.051490001697414,1.8734823392080504,0.872644519596096,-0.64142903181707,1.0928387188321689,0.830855329827447,-2.527507434674702,2.416783111889884,-7.681930658033437,0.9612924451847832,-8.406384903406778,-9.631690883255224,-1.3368307669630584,-1.223777439401155,-4.189234064552011,-3.099408432701706,-2.5267884140322323,2.3481695282550765,3.140022548718127
215,2.2033928744928977,3.633410354838,4.971689537110551,4.8442543534742,0.4163972197866536,4.771994412837646,1.454229702789561,6.081107946685487,3.416698872363717,1.5355901804790402,-1.3784886296633196,7.375302259575639,1.9808662030988256,0.9538905090636128,-2.3231028782006966,-2.3001327610501123,2.330933958027196,4.002780948619854,4.819283296385885
216,2.817712668780474,7.445818915324512,5.160406681046622,11.25481001483569,6.607433160712521,5.343320983509031,3.896588457578945,17.034319289773556,6.489302870272004,0.6984962423947128,1.418671914924889,11.606338686188217,2.106218856283704,-1.7355438602876556,-1.114548214213075,-3.0186536428533164,2.8935506165010607,3.393205889976777,3.3156364934510107
217,-0.3941843132439013,-0.8168967294167968,2.268614547167632,0.2162043026151365,9.866018051300422,4.597853811164762,6.917466127997761,8.858629952599808,7.831809162615412,-0.4458277591705035,0.3962445512277295,1.936790075709206,-0.9738355393787296,1.7970239219891109,-1.722952783182681,-4.189321421735324,0.7013281550548487,-3.356486856639368,1.9133057826968327
218,-3.620725540029519,-11.511151243807866,-2.212014269088092,-13.05415094206204,1.5932554074364136,2.2630048085422194,8.16647358098489,-10.481407915239965,12.166057120492251,3.283012759141989,2.8684015191231387,10.242996747257894,3.8649808241211434,8.10316856341499,-1.6224251022136889,-0.6579945636590052,1.664366467925262,-10.046227844050293,2.532419098523985
219,-8.496032863489603,-19.251257085143987,-0.5488199025397273,-13.119796931903076,10.256653591634208,3.734860708944794,15.509587955351035,-25.992269023387877,27.067806161042174,0.2062304722089818,11.211487399429284,21.637550891580787,-2.441306425897709,8.912728737153808,-2.0740281695678826,-4.110833640541966,3.792209827756472,-8.942632539979336,-0.4413779473318762
220,-7.479286102761827,-18.893681981866465,3.8481799389942792,-13.572316074743195,22.23553170245032,6.682667265278844,20.37465912513221,-15.156469382878836,31.889249919957013,-2.399503196559878,10.53285836874126,10.62239258702662,-11.428738881506696,6.547611530693529,-2.4772261145495955,-6.627533263474608,4.344744959595248,-5.483353840288966,-1.231196533446452
221,-0.6278740407819994,-10.740183329696787,2.473539455486086,-16.99323369856856,12.272908185318364,3.973522014117887,13.545986001065332,11.658903346058723,20.069005927963104,4.227973160703115,2.656075537551448,2.152977295673507,-2.273971666531724,7.778234647768818,-0.5654580160639586,0.9966770476047656,3.673105559735984,-7.642239681878316,1.9185702774584288
222,-2.4161714086692108,-12.183329933972413,3.267296027546039,-12.09454092549445,11.068910329104076,3.841190160845165,12.248148722964762,-5.156986031442092,23.647446546495548,-3.1595960430729546,6.8627288566024,6.125734469628195,-6.292759487952373,10.431120204398226,-0.1409243228522578,-4.268976486757796,3.987027187194973,-6.435856563672634,-2.2283666385596064
223,-8.48536300543627,-24.070722032085545,5.72206884198499,-14.131920376744258,21.886102408572068,7.7666097677963695,18.4512930520207,-42.84923458258453,32.63773244871618,-14.907144012033758,11.514743781151768,2.339583696364672,-21.60597403583572,9.858862462328156,-2.1342637556177744,-14.179892753101544,4.231316081349194,-3.790484156226495,-6.204218357807966
224,-6.641309307223605,-28.42692623673585,0.5680502280543163,-24.689371242116945,17.08185455092453,4.591743597059341,16.335648777042177,-41.65013299311961,24.435058379702323,-7.579819048360329,6.926643837047166,0.0693302625205776,-13.354243450646262,12.673188188335349,-0.1313392330005651,-5.769942418142184,3.931679276097886,-8.26503263513353,-2.545446450947032
225,-3.5831662740754666,-25.09945438726415,-3.914605187462013,-16.919997667134783,10.653208107037733,-1.87263387328068,9.674956386330765,-33.12464912664021,23.112275204549764,-8.622519728189255,9.94828564844168,5.723672208677975,-9.635396885916563,18.010102617387727,3.7291738749145233,-5.142550603089767,5.90018240830899,-5.047222125957529,-5.9698441504029365
226,-2.97640463922163,-23.617011568666253,-4.44660229862351,-5.932601191992649,10.050387550415866,-3.604425144648968,6.558923793244202,-26.93875765125088,27.97491943979574,-17.051146040132238,12.134950535886563,4.8249809458639,-19.4741343016816,13.671609885083708,2.735397732052077,-14.340252789269538,5.122547779177862,1.407697105002046,-11.517074044268051
227,0.7198053337303377,-22.86342413769851,-5.724895132469284,-15.779088597363778,4.809731841064732,-0.6366531823183981,8.61185397681919,-6.1620002931781785,20.798039471935404,-2.5995901446596266,4.139750338218642,4.503567747959673,-8.274730808713167,7.6385990421226095,1.431599834708205,-4.168540675761247,0.6742726131403592,-7.843022666170615,-3.1612856734119967
228,3.304783277350115,-18.74511362239251,-1.06468785624865,-19.128195068226105,6.094651944167859,6.239637192884537,13.743395558385782,-15.868679004084145,16.489316151957176,4.714439779276884,3.940897813808614,4.529113408289856,-0.3418600347796499,11.466764076741947,2.9519286587918367,2.9378193346591277,2.304582045795663,-10.743144174845368,4.546331387615727
229,1.6865089752275453,-10.279547175814624,5.118068657849295,-6.497238932400614,8.971261843847383,8.986987580326618,10.535898015181116,-32.958657047875214,12.449551327189027,-8.902541665430341,5.722952490023387,-5.529367717135243,-10.461948348725915,11.803786008424918,1.6439356287373268,-6.638152267582194,3.9721748700189554,0.7999216922908117,1.578434891325026
230,2.3085251486910576,-0.5327640415846788,4.534075588953843,-0.5128432187490988,3.386577131136655,4.689200355543921,3.672487090569244,-3.496520558145214,3.3990559607572397,-6.413273352568653,1.012993396124862,-3.634670292075267,-4.445257722623147,2.571534856314193,-1.9475169997591173,-4.392458052507931,-1.7676837728425232,0.1302130625652106,0.6422559858133291
231,5.434172439994458,7.6407473839155315,6.062568869732333,7.82744629465746,5.352749108416583,2.0437173894976413,5.6398362612146125,12.308154662105512,7.7514274038502515,-0.3141096294738987,6.567576530526129,12.66557396681918,1.9452979457458164,-3.5829842867874966,-3.224072380932892,-0.3808965999203619,-2.460140454500126,-0.7129121305773136,-0.7293710596479346
232,6.308528011585985,14.54720614231477,7.099014346707237,21.584812097698325,9.071446456233405,-0.6397919436832096,3.0275801827562576,-0.1928616636102518,8.997827642715801,-8.397763555750435,11.950623091007792,12.352892259271712,-5.746777587120604,-3.9792034895509696,-2.6764816498326027,-7.430965413913597,0.7609625787568248,10.485762319347176,-6.77504936728114
233,6.607198872226093,15.477310402109872,-0.036359001665339,14.797382365531451,-1.7634508313034996,-4.414484099446795,-7.63138637777986,16.457756220183526,-8.6555806611623,-1.111979458781751,0.4000415452767072,0.7754739791845155,3.837078146757346,-3.219005147680564,-1.2478304876927035,-0.8808839348659312,-2.416263798092368,7.070997859763775,-3.846972810392765
234,6.356146305407482,10.265233273616186,-4.346712609795102,-0.6429628852888247,-11.741505279935836,-3.177056938313895,-10.67015669886914,27.14174410427074,-18.657747222201927,10.527788150224085,-7.957347200531298,-4.434097234293518,15.092928514571769,-3.064899888023727,0.6778358499008243,9.67767100732647,-2.829832740066593,-2.093163491367415,3.561091908214877
235,1.2236487762618085,9.59785037622452,-4.204473586252662,4.209966578186169,-11.097432785846085,-3.921466302805748,-12.05761589761779,11.20119434337655,-18.95671057286185,0.2697877881060098,-4.5630485610053135,-7.9007670221312125,4.828256477259107,-6.314783254008198,1.66710527661603,2.918596496372877,0.106555684873598,5.732958252554319,-0.4972462541027704
236,-2.989990005829636,11.247129667753104,-6.561686043015072,10.697909870214271,-10.032376283305616,-7.46616960784265,-15.61303896875172,13.283723714723216,-23.451110731758604,-1.895948397475805,-5.211837393872508,-7.044833453719273,3.327134488462047,-10.323676277310414,0.9470195171346064,1.7351207386650351,-2.7585746436505323,7.452436276747283,-3.1531821988586675
237,1.026613198335564,8.838712091471441,-5.279404462156454,3.239922535494124,-11.979379085343238,-4.756141991233806,-12.404488262528188,15.144310769522964,-23.31917721525333,11.542148077680537,-10.294688824317216,-5.782453966228201,12.179190275180307,-9.753081590852275,-0.7862374957947389,11.63376460449556,-2.780475407157981,-1.1749147266150095,5.170257705299779
238,4.260728738556317,13.310661263850236,-0.417215608566301,8.591234665943778,-13.50890411426135,-3.914213216732058,-12.080260116296246,8.248708761190358,-22.144620038518383,7.213913091715131,-10.737805216845736,-11.688517836253384,6.215748640086353,-8.492034736989954,-0.6242868183776384,8.106082894176998,2.2049443600135983,6.009232221471345,5.083743888049202
239,0.6835899510078125,20.78523298091313,1.0694625214891411,22.874521047005924,-11.328313235651338,-6.890469804208848,-15.587955227101908,22.193187522491478,-24.855733993197592,-3.730244501511889,-8.655953342593321,-12.399287476219069,-0.4550765910935812,-11.413485588537648,1.4856370769397331,-0.4189126829759733,1.4571758231101928,14.973914442111258,-1.9993981993611936
240,-1.276488690427795,12.395425342719978,-0.2465250183182546,8.600895991132212,-10.41579117864176,-2.9986343157700435,-9.403906054944448,23.37955857155182,-21.0864311692991,5.484470517811867,-11.623006070351996,-8.999786972209492,6.19929903753477,-13.170285115850136,1.4065625942723416,5.597785650303727,-2.2755286155971146,2.748166575275206,4.0549679841917365
241,-1.812631836482863,0.9972851280365944,-3.714902855420762,-15.04907603324937,-15.693756358897062,-0.0356154860336026,-4.077971535042952,-1.2507833415732286,-15.578405566107296,16.61268837255104,-14.517589517329744,-7.174076497073811,12.771582626036851,-9.921238328113311,-0.661196980767194,13.644738631485165,-3.817766991648975,-9.914696435562425,11.080956023543274
242,-5.693174413888098,5.177497115186202,-4.165997157709678,-6.5426825805023,-14.923138816145944,-2.219384513601832,-7.482486945640458,-7.276890304308585,-13.354963994537275,11.746021545651177,-6.349920366167291,2.838252495108597,11.556453975897409,-8.790645332517395,-2.6420854059386567,10.115050583729433,-4.738881441863899,-4.549522568794433,4.674785627135266
243,-6.44828399805628,9.49950955115083,2.8187670789697763,10.401639131368912,-4.115587829718115,0.6706126939419472,-6.057078718712494,3.304988392010389,-9.160155033861496,3.517231833471496,1.3658125158662862,5.369967829970671,5.070668003063598,-10.936792706977236,-5.124662272550166,3.052024009420127,-4.059992665435768,2.5997309694735398,0.3122453778412822
244,-2.822875158492647,4.574121414016373,5.901128185934718,6.675780404900518,0.851476762108389,3.1966798134247028,-1.4990957696396547,11.28882630874342,-8.339824771552545,1.233305382054583,-4.107639296320405,-10.695395884678929,-1.6237372227895386,-8.061975453573451,-5.656116567312909,0.6869224338403161,-2.718852241133488,0.035798479502159,2.841795513363291
245,-0.0547238545752351,4.385889149947444,1.1066717247751905,2.901419974591713,-3.806433274495733,0.352003961942496,-3.2272754334861222,14.397728261232,-11.47132590973418,2.4130932600951374,-8.34396352152081,-16.299969210480466,-1.923593546687284,-2.7070131113850104,-1.955166160425444,2.130895985168649,-0.4384474291327216,-0.8197431081169326,3.177611231043155
246,3.316431636793832,9.712180756003113,0.9725184450415754,9.64260826032605,-5.71132969748639,0.9552831159309576,-4.450274622620143,4.329973518837736,-8.617093765426505,3.8923231309288497,-2.908104846400444,-5.401777893804863,2.8946108859420026,0.1271302026532417,3.518353993242914,3.013471842419551,3.403906203882883,4.846461633221386,3.366977260358518
247,3.8312015722791046,7.853624507130584,5.297399218215483,12.976253204425603,3.7728571268391273,3.909613206372185,1.460811456768223,0.4785185683199719,3.5413366955689494,-0.0189914732110737,3.924603455232421,3.604348026857978,2.3355244462941576,4.705025520680715,6.574613888347626,-2.5543400190169483,1.2643492110167538,6.556338615330906,1.3722399518339938
248,-3.729349449302908,-3.4438063477043848,3.299756310255029,6.980093122808859,15.940593986073338,4.100045413229338,9.265371396362577,8.875494129546372,19.090010493217964,-7.610968223195599,9.543603609653072,11.080552510852405,-6.140216283106804,8.25933357844716,4.017417901190041,-11.096866000044974,-5.909553493363662,1.0242662164111127,-5.273914181849448
249,-9.754278629374374,-12.776271944312953,-2.4446096237972417,-5.135349833238943,12.554354193410152,2.4025160850705354,9.499903516053267,-3.337945641556239,22.314254328326157,-7.256697421996315,10.754347087208076,13.314283561349235,-7.09356361614886,9.370414912431114,1.641172577278407,-9.637628488961678,-6.531098464500484,-4.231064876997217,-7.441266040256898
250,-5.931358881955112,-9.013174877222536,-3.370976053339694,-9.437545708175842,-0.7132264922652338,-1.5056653839651468,2.117273523291712,-16.867274171192825,9.605796623222956,-0.4549717231612256,6.861202610219997,7.0262285927970565,3.9533648753756463,13.418830858605164,5.875068457757296,-0.2211217228085777,-1.826700012850245,-4.720528210699378,-5.063273735093895
251,1.0791000996254314,1.0185083136189603,-2.2574356436580514,-2.3155937611627198,-6.229303581837399,-4.03742044821578,-2.6441239265103667,0.3934466388251656,-0.7704454747956359,1.6826005589636956,3.179632774686942,4.385354724732656,7.509597651876785,9.27230689606298,6.289383797162491,3.39550618342228,-0.281136881492581,-3.024342772820582,-3.288793456367337
252,3.862780750281517,3.36731366966344,-4.429995129715785,-2.8743176551077,-8.49076510876658,-3.0334361040853928,-2.9185539565833194,11.839671201574276,-4.317879956547562,1.8562585678088932,-2.3089907673531265,6.3855474422435625,2.359304535617067,-5.3388815391168905,-1.1760876880773992,2.910633949894644,-1.6750620296689334,-4.082122904683652,0.3079034256901054
253,2.148087764067091,-1.7212308656872637,-4.328487360793805,-9.745056647370774,-7.710299955033148,-2.5910174083181623,-1.8721225637109025,-3.868797829654176,-4.47509788774099,2.3166879693744176,-5.148295452991524,6.803653926674584,2.03344818672263,-5.080915833505579,-1.6745391779491967,3.0770681806562337,-1.2458468055901812,-6.066466455261784,1.7697096876893208
254,0.2877626484367033,-8.647094921281925,1.1062707814314834,-7.539247997078482,5.008814356436401,-0.7778681542900157,3.7538586428239697,-16.353182153825355,6.143608675270507,-4.7570836594494885,1.4968029455422447,1.4782260060497867,-2.9539893950258738,8.251593355440102,2.36678039799299,-2.567437411702856,3.1818814834643017,-2.869416741071963,-1.6813526323248411
255,2.420520926297103,-11.773639588929814,4.146917725235591,-4.672587438966828,14.854672850382077,3.384648572936559,9.651968945530076,-11.526968178772016,15.553843922377078,-10.590976582277666,4.988227822633008,-8.532069338323389,-11.113365351779237,7.994793270964928,-2.557853549452312,-7.768879691135829,6.51761974395178,1.5174999959106197,-1.832233328639189
256,5.436056502807487,-6.733670125864356,2.95425501370643,-7.130944295539709,10.218593353637994,4.258400835425067,8.562117054646787,-4.692845093438632,10.050285919990271,-2.254403629337106,1.5250221478935928,-5.00707658770667,-3.200155051232289,1.3409472897800905,-6.644980702425387,-0.8067411523933963,4.277553487509645,0.1982914752218132,1.5207831681829804
257,4.378128142536049,-4.391652917161536,1.4246843801582465,-8.681797021900547,5.1056397577739565,3.1297270969557616,6.468469448927399,-12.735682338522675,8.40943046484584,4.184506560239553,3.851601054366529,10.232507317694449,4.600483900956844,4.708345340661348,-2.065388271319456,5.029944715636347,2.1697525762372702,-3.1798298894178734,0.8009156880675512
258,1.8184145402119491,-10.632989556770754,0.0491367628379557,-9.51095203151364,7.462789796261871,3.32626333109049,8.108382459487935,-22.018621635079725,17.19415666246791,-3.1947497891594523,7.955698549721272,10.742383737499448,-5.430757395671956,6.739677214920891,-0.611109820352667,-2.414510719346712,2.7158985652854946,-4.580643577398651,-3.0274822391155896
259,1.2059521386814076,-12.611181452904336,0.6464957163008259,-7.300889102901618,11.25418530653725,2.21495890897386,8.93688132134587,-12.461723574135624,16.93295587081611,-6.8482833630332856,6.098413690430286,0.8136451157417787,-11.214980463951784,3.76528386751163,-1.7085364529947054,-7.801427284187291,2.0965597426620945,-4.53821346782204,-3.9221658145303104
260,-0.1317078214423627,-11.956649528551116,0.5042244770600659,-4.566426449227105,10.288761703920557,-0.6663740852511769,6.554966146156088,-9.967168292163558,9.132214076955794,-3.6470998384951,4.281974509387805,-3.34180935619612,-6.933916024955519,7.029513267757151,3.8734071222867823,-4.001114098894609,2.8119860332589366,-1.8874795595093248,-1.9281816217371972
261,-3.1413898674821983,-15.33724213882954,-4.096396927200603,-6.706961924695314,5.170310185076605,-2.5324176601309003,3.1309346443574744,-20.846713269551348,7.851662634247189,-7.113064929458515,4.141895888488905,-3.021209105320976,-9.005065690785155,9.325806012398608,7.444737221091067,-4.110671369206553,5.174663708359672,1.7087324431966588,-2.6780979608614235
262,-3.423323004352234,-11.34512838985898,-4.243755607725055,-4.607682367517271,4.60412040074557,-1.1476814309506491,3.478779107081268,-10.192182516523747,9.580206028599566,-8.576244490138969,2.7178036777367547,1.4111189175852497,-10.938724575878764,2.1684970778805104,1.2303251238497408,-7.324642067376287,3.633828262385584,1.4800493184534131,-4.455796440429586
263,-0.8480753436247201,-4.047133150446716,2.3866419642254466,0.2402555939015105,9.25200129215386,2.2812424042656554,8.127518369281457,3.923961532473058,9.494032691988322,-1.6208357089855026,1.0494359652273793,0.8563690438972962,-7.755003768826915,-1.5468298161376313,-4.790224499534056,-5.419697633561935,0.5256297544670807,-1.7599715974589014,-0.7275626124251788
264,0.6282073998461275,-3.868092876553671,5.203113797574211,-0.2822377773614417,9.71054109528738,2.952196077399667,8.578775810598247,3.8674485590872183,9.583705378622302,0.0153321028465178,0.7707179317976689,-4.495165222265491,-7.180424781017127,-0.2074211622616766,-5.695741395225118,-4.288470118338111,1.096138704379552,-1.4834157916802888,3.370780461857466
265,1.4843660438526312,2.6033414068376337,4.297066584076626,4.597476507470444,3.7715552070417866,0.8949717064584475,1.472960668436472,17.051459458166867,5.711367818221577,-1.652115619668692,1.5704861807628356,3.345183002644162,-2.5952306471755398,-5.873905104929033,-6.860505112972317,-4.353112390833103,3.297090688676652,4.937205523379163,2.8333159545211943
266,0.9776107342572934,10.733640137862729,2.7571627196202875,10.092291860051352,-3.719330119821833,-0.1529353785360593,-4.854393483306658,13.243812332230751,-2.0482809488398046,1.6072869096073328,0.4378851609377595,8.508087735851253,5.414837124821814,-8.429655657892537,-6.354412110622749,0.407608740140268,2.8084683274588547,9.033670011259275,3.0432525151232426
267,-2.743749923551637,3.215786821175951,-1.4399794481420145,1.912950092927392,-7.439694761660009,-0.1535659742960136,-5.619653013234077,-18.23665348973584,-5.144683189294725,1.8080140039837824,-2.4811462648851714,-3.1718025661552334,4.18421263949571,-2.131620112245251,-2.641180008187243,3.207208286597972,-0.7738515244131148,4.455115244313134,3.450214803972778
268,-2.480692387473028,-0.2363644466327779,-2.378159922568188,-3.391548329737348,-7.993637038600823,0.4486495982393225,-6.075012121249614,-5.589462663861696,-8.583037994533896,0.5764116063789018,-5.666645465769958,-8.364702990412367,1.2971187937331967,-4.3533310509893495,-1.1079888325491558,2.009206692829638,-2.413077436224529,0.1823680218294061,2.624708581542393
269,3.704974309671665,10.871434206912422,1.2867623066768257,2.1020899183327164,-10.11349797037049,0.9320255384551056,-8.254681433320489,25.753653756996,-18.117866214133187,4.418479012999618,-10.940504816789913,-9.025256573264077,4.624100747499007,-8.48316428217755,0.2444149274120841,4.724825419560581,-0.0491225489065887,1.133322556593688,4.593597082039686
270,4.92237219213214,13.965081126662003,1.924493736853914,4.053187608963556,-9.680122948008044,0.3445100232669731,-6.8263595203192455,7.341324316577362,-19.039807692022126,6.3457846979966455,-12.14351039606404,-10.46930796944726,4.712783908528677,-2.823516105306038,2.66216005714296,7.254665955197739,0.4320341426583194,0.5527771049593868,4.980136091793401
271,1.2532512781062242,12.129011241618135,0.9882675585542164,6.898454285175157,-6.743159193867401,0.9953579162372048,-4.12729159941403,-3.3741634802028955,-11.537399817531448,6.6256177035765305,-5.61151697131595,2.544588131990284,2.5439196866219644,-6.224929832318773,-0.129330940098487,4.930538118252024,-1.6926278300184494,1.2585593396812624,1.6974676999973666
272,0.482261393044473,16.2253542257851,1.193458391007125,13.433731214955529,-8.3882885964556,1.8977674644826896,-6.057052265899426,17.066527945259715,-12.630131517981903,7.578570554683399,-2.5368269150482887,7.269919722817264,3.54682898178664,-13.645039891415742,-2.9303623263655294,2.833705978155139,-2.218306601459578,5.830399253900778,0.6455474088473148
273,-0.7874003701547228,12.51321016047524,-0.9890534853617088,11.933600514447145,-8.812350450843443,-0.7177388954368782,-7.4067518021887855,11.71367367964648,-14.461725804360174,3.8908240868143578,-3.209553973629979,-5.585281935543534,4.244598266110278,-5.194570072743376,0.9429119202095696,1.82067791296196,-3.4135804480635685,3.9650635190665824,-0.4161061236695917
274,-3.624902649781077,5.856302378440116,-4.798343224387022,6.431331693305713,-10.137423397671093,-4.830962821592394,-8.32259602418548,4.37141750758582,-12.34093483441484,3.4490250726544653,-0.7442402039988107,-5.227030896800009,9.152835185524369,-0.1756624230931214,4.361667723856776,4.214301425790564,-5.820598076139151,-2.382698986672339,-2.062483497122136
275,-4.785722792443783,7.453639190934163,-6.761625020162039,3.605564127438962,-17.63333121322432,-6.870010380700961,-13.135885128711545,14.70338839400474,-17.05052110344209,8.75942609852039,-0.416457865920961,-2.6742486007439483,17.76364412128188,-2.727372989375528,5.935424192138732,10.84908072633662,-6.99291547266283,-3.331210936885322,-0.7963477061870972
276,-7.568997124275574,3.568366640398047,-4.663378487274348,1.3243445014387834,-9.87814781300446,-5.341706649601305,-9.367886664867866,6.976281006874906,-13.239072603345654,6.128463304238212,1.527231929463145,-6.596582254858213,16.50476004995553,6.41018424952299,7.820122841860659,10.779354207820749,-9.123965911337452,-3.8503053529358944,-2.1487176002283905
277,-8.979113245032192,-2.996129302374049,-0.8478334891610524,0.959317088181496,8.215741165535425,-1.5618653827013764,2.787408030836086,5.915873246271799,2.2783857326331987,2.235172644580289,8.31353297937872,5.716840321877246,9.623198603874496,8.352914816857608,5.008407508192272,5.600134884371551,-9.79900801785093,-5.584568772616336,-4.604431080116235
278,-5.1701766511346126,-0.5563642748138689,-1.7584823681830253,-1.6770423786982525,3.7415113169346266,-1.1684422623762982,3.82302759843322,21.678500019659246,3.945927300188585,5.786619538078363,5.961554009303629,12.72466414767214,7.591919447047472,-3.970983514750619,1.7159955575526489,6.003134547192912,-5.978286019777404,-4.148122392135306,-2.159078477266692
279,-2.7860150580953884,-1.030405129322363,-3.211062721312401,-4.730113022934194,-4.819288482874216,-3.841641020074162,-0.9226101996424976,15.760182873152154,0.6008590400696796,1.083057534609236,-1.8752600829134145,1.2749857570038416,2.05550354385987,-1.4279648221537724,3.1052891598053813,2.6822831640186786,-3.296260115226505,-4.255588340082267,-2.5941881042209127
280,1.3805276632191577,-0.176082203512677,1.7483835398342045,3.976114880118263,3.727316914973248,-3.5312605759549767,-1.4255870665265435,8.093284813798366,1.792789182760866,-9.389174442713454,-3.754862823834993,-2.20735944248258,-6.473110686853485,6.671619780921207,3.0861257190567626,-7.046597911574851,-0.3876692410439908,-2.49221098538328,-4.392458168750839
281,11.415376613588736,12.09428915174549,5.412037789798236,12.268768372336718,2.7719663217976898,-1.4133785020078382,-6.692059643602777,8.360833978213394,-11.00210907101114,-8.096892043227715,-9.03035268701458,-6.75428974849,-7.807678671536291,-2.6188011511515192,0.9224366333127554,-7.39132375504502,6.842961674526897,6.158722152619237,2.4721415526131967
282,12.529124514791253,12.414818390515949,3.585089915469585,5.642386386614215,-4.2138308807417895,0.1313860565967051,-8.293309367702046,-10.405376899420324,-17.724985545532952,-5.328366262448146,-12.838087783745522,-16.163861432667055,-9.570138520374066,-9.84728128669807,-1.6175572664605766,-3.7735748089179673,9.213721691129017,9.473077781055762,6.736167626208253
283,3.15223572088136,-3.126931425920813,2.95557441459931,-0.9312768885574152,4.66234382068154,2.847306241258079,2.6677710188682164,-19.79145594661188,1.3020351464693762,-9.014818485059449,-1.5265759376654149,-8.80343486904009,-12.763070397798984,-0.0693386622101144,-3.893022489677657,-7.246900861499206,4.19662737968699,4.765838019416979,1.0485740613077654
284,-0.0983488248754538,-8.716121875176704,2.6505937763728022,-4.921465533580108,9.750234458953557,4.952600385519752,9.634456588038416,-10.79497680645601,13.691245005273274,-3.1987222193896185,9.57823703102315,2.1926378638729367,-2.7218586713640027,10.592173846729589,0.1776303700767698,-3.826461318772109,1.029468729964374,0.3358882348535087,-0.0739663639507139
285,1.94202781725286,-6.429368477863073,-0.7978834952230729,-14.227214480616208,0.5240562886966726,3.695539299394348,7.55768155225477,-17.34800274669158,10.016233502834108,9.001837985212532,8.890157165103714,9.75685847862899,11.93415009556933,8.476841294609907,4.682091351986657,7.560103552561154,0.1884054963630275,-4.850735006156049,3.668400361096572
286,1.6757249086651935,-8.016250658442864,-4.336296016786442,-14.181327688583137,-5.578597816411551,-0.3939080305087019,3.740458093898481,-23.04618649737298,9.441040739950822,7.25372489768433,6.273778602924244,20.441521308439693,10.232566089774114,-0.0011546351456965,-0.2390899739316241,6.316136897286974,0.2638562738191883,-5.56364941443466,0.2835716173061557
287,1.6376172393437085,-11.45546676706771,-4.643976021470166,-7.421085446758772,0.0714974752504979,-2.8324315018875392,1.638695730094779,-16.210178588953145,12.202333425187772,-4.205046595680622,3.649710282760892,15.547603706407871,-3.615905695300708,-0.6831938328427909,-5.946770321400933,-5.7755824389763335,2.838631172887756,-0.6589156675190839,-4.257235161769997
288,2.4287627323918963,-15.290095354924665,0.052972642087639,-9.168005813296327,13.142595905287514,1.3804906181336876,7.0964654369741655,-12.876921054321214,16.77335701908506,-9.176843805054066,-0.0088529813006688,1.5484009279773432,-13.852499134829673,2.610007580204922,-6.992255124200878,-11.599169446626105,4.932795513721331,-0.9183102361831726,-1.3267403310236254
289,5.120062940670755,-9.556841156217622,5.187916204710545,-5.346139747284665,13.766107158012543,6.233850820795279,9.679794111808596,-2.6205055148029373,12.9686930674657,-7.647502336915034,-2.0344151306330853,-3.8661101127667297,-13.794833541819244,-0.408083321926429,-6.390405687941753,-9.177504357609156,7.179970810995162,1.1891676288492763,3.1328732660053213
290,6.550077113520135,-0.3234606562709539,3.0179918043271483,-0.0834541278269953,-1.270889025266963,4.860070432507552,2.1056892798309,-1.4093968638360663,-2.3587903569808444,-2.949868829831231,-4.652843569247809,-11.133733326633353,-6.557242238932352,-0.8201699657933896,-2.54712265489622,-3.4466261921694508,7.7145280581078115,5.785507127127326,4.027917832063388
291,-1.2628730373742003,-9.371899956215325,-1.3651695516229785,-10.627065383377849,-2.0383907639528847,3.9011161316609417,4.462339208524103,-23.27771331188715,1.4857013598403634,3.44144763694916,-3.75155562724117,-9.055275989840492,-4.072161703316707,3.324074772237766,-1.4763374832193366,0.688438110074225,0.8673573762714151,-3.0731688490412994,2.226129770112614
292,-7.504171180074848,-15.741984445307937,0.467504588193429,-8.98648974954796,10.552891587294036,4.584248688705428,13.521199201830637,-17.93505804661776,19.965615472167062,3.0170965455759235,4.535231509636273,7.417376652920002,-9.051401449318046,1.3209948246455934,-5.000193697715916,-1.1989836775692408,-3.06908443448794,-7.440257353523081,-1.927254194672924
293,-3.6364721582019928,-3.487478333262432,3.3795931234852508,9.395622043997076,14.014016753387358,0.5993661808234141,10.400715766050096,18.513763208486147,19.42446015687637,-3.8136320153855223,9.230206968939909,9.182587344292523,-10.48920293880585,-0.3480605625225885,-4.173383268572383,-4.746548515403847,1.2595840276458647,1.9643903683522903,-5.695864863381777
294,-4.9690515487674105,-3.5995563032402025,2.0593754600368364,6.818189144280919,13.81812263523678,-2.8382071299358835,5.931913384370607,24.110087316205224,13.000973396920417,-6.820483613508497,5.463846606311898,1.4838661612270352,-8.345210821214753,4.031468732461184,-2.109664847528976,-5.988855402280847,0.6032691209846455,-1.321449447690949,-6.558862040150804
295,-10.68542770229224,-11.050856982693922,-0.4630474875158317,-4.385250061183356,6.910748611770501,-2.028417829058067,2.688130089097628,-5.350837472272959,11.840096033579872,-5.642401987760094,3.825321059099761,2.6101023070278235,-5.541240647489124,7.289613145413856,1.3998462434037244,-4.9734693470054125,-2.4477394365212053,-7.258044484547559,-6.201781419008505
296,-8.310326050703521,-4.697670575513433,-3.402962330197968,-3.691337318378896,-7.51483070044408,-2.0596616352647854,-4.164077542433162,-22.156335391480987,4.572658357581845,-1.239105655828966,7.358461479855714,3.035625056677857,4.708847916639583,10.030545072499562,10.3040398926243,2.550408303117093,-1.6402078076178697,-1.8134458563346472,-4.6008314952825184
297,-6.544371762397471,-3.141656962678704,-4.966689266770237,-6.130381079845911,-5.463804923748237,-1.654677978820997,-1.2944471507819904,-6.021036010695161,1.3915734444956795,4.787585592716631,7.053337968467293,-0.2569073556155787,12.11768489016131,9.674912192117304,9.12881137463136,9.611825359511451,-5.468889819308435,-5.186593192285281,-2.1620728611996447
298,-5.020300564163383,1.8851225761243584,0.1764845419281622,2.2042391617942614,2.736745373972336,0.6876957161019845,2.0759255085409483,18.72535584729801,-2.9396700030735223,3.077795692023906,0.9062439390104748,-9.290683930609978,3.917881459050056,-0.6715155303359999,-1.087710267561889,4.310086456546501,-5.01984243100463,-2.8858392363463734,-1.13694286102153
299,4.581253504618178,20.119257905567608,6.924714486919197,19.435718542125805,-0.6140517469450864,2.594380792815917,-3.097269726452318,24.832212953788407,-14.803151557569308,0.9846186688522314,-3.11349264013161,-16.04977318301185,-1.4488437454829717,-11.755331456907252,-2.586493609098737,-1.1316873653758166,4.656881654934168,12.508434104033189,2.605836109985411
300,8.801358219985735,18.327833577403087,6.666137298043573,10.607720670262886,2.300886780690876,5.036590735204707,0.803266461877298,22.08533438792668,-10.680610831660257,7.638322460800419,-3.278098459108567,-1.949945693052637,4.471305610761742,-12.891731983162508,-4.299251297423427,1.8597966953122884,4.080480043593737,7.178057261001238,9.48098635861912
301,5.925232700819356,9.082872603926427,4.926305643378775,1.567975590712753,3.3934220918497644,5.295935263858327,1.7695829591811578,13.53210924532815,-4.170636095785536,4.721372544840442,-4.301316996034991,7.690911234250013,2.264324155717379,-6.537527381479892,-7.381968752537688,-1.5970401747069491,0.5465129612681805,0.8317616730300958,9.700205583755238
302,7.5131334846499644,17.094917986640496,5.052195206406234,12.56994347587117,-9.197573767984366,0.5592193073230511,-11.22955854737735,-8.684726918290934,-13.671884239998867,-7.444673060411149,-5.174457658303274,-0.0416034757402821,-4.456167471663885,-0.9839237864537552,0.8943918571228089,-8.373282110622254,7.720667229829004,14.875107267610517,4.064678812985516
303,4.855350328670182,10.31094211837086,-0.4519866224369693,4.133748421643912,-11.213307719594692,-3.748091539657707,-12.3501855083848,-9.998937227159333,-11.389034352654589,-4.062894000501,-5.192344895312082,8.38180156816258,0.7216341356150222,-3.1288533435771555,3.980805455366328,-3.0682711010874666,4.433175959258046,7.588078885552177,1.9964388586962496
304,-2.07112422784592,-3.869173214817865,-6.587797961406756,-9.653332398477495,-8.461740365649685,-5.180377893170664,-7.461739000952817,13.584367165844736,-6.875676117480158,6.354319409262615,-6.738205001931486,12.862047441141346,8.733721340367307,-6.139320879372098,-0.8864344561316446,6.832438168628713,-7.7952942410906205,-11.58432503782285,1.9610629023905892
305,-1.9526402315977007,4.796480245989546,-5.653683753550155,1.3231719810993607,-15.803627308687242,-6.234125250065998,-13.521284021330043,12.003838729185324,-21.66818289161017,6.15015818157095,-5.9373093292927965,-12.121588760476882,11.449520876837267,-1.1668111680435915,6.60637737184409,12.226373978731068,-6.571408379050201,-4.34934665051664,-0.2805700743024535
306,-3.661260667460144,6.950336542020146,-7.383362140176299,3.543842163523392,-14.354613804158182,-7.195238378406097,-12.55578934978364,-4.62229043166095,-22.042391214374383,4.54735258480269,-1.684885157622352,-17.49750426880446,13.62910276804764,1.8556707388332256,11.447485575890902,13.355271813617763,-5.0064867449938575,0.9503681215926996,-3.7708798089264506
307,-7.771600490644848,-3.142895563253912,-12.504261833312729,-6.025227951461629,-10.86505108021584,-7.580359839376136,-6.447851910116911,-2.042322497260037,-6.3414361041875456,5.367902724149376,-0.2093844078800402,3.71362957554805,13.427528011050258,-1.5248215907127491,3.105415469775192,8.657049827381144,-10.705250848481338,-6.10636636158019,-5.745119046300427
308,-2.693545372648184,0.065393689459566,-8.8339937722223,-1.2740017671905255,-15.38956272385006,-5.425746425149885,-6.442709686699037,1.5871604841352578,-6.289135833832352,5.457140970985529,-1.5218543381179996,3.2816941507355395,11.09130753960868,-0.1130164635158837,3.554361807664537,5.785984024613701,-8.101999395991701,-2.521379214826225,-1.738937427151547
309,2.36121337622072,2.469024833851636,-1.6675772430906264,2.897511185130816,-7.194820978976237,-1.360839481959328,-1.745076306951746,0.4226122699152168,-9.326495684022053,7.335082927957206,-2.9860397883014658,-8.092303712549962,9.79676913674303,2.812895522788793,7.184039798995087,8.852749341567536,-3.9438129552835255,-1.9480192184378708,3.677689537586093
310,0.7279445674699354,0.3556114920099396,-0.8615442959693262,2.137826385887422,2.0963607448623023,-0.8387809570626028,0.1257252193624962,3.1207414845595265,-5.45007826442383,5.261838035629989,-5.0077741680691,-1.9428650598099584,4.932471047652059,-2.6154903758321786,-0.9876900485201277,6.255274534925732,-5.329207382340659,-6.116806125922787,1.180316634592765
311,0.3474857990854993,3.8419054370770698,-1.9684371474612483,5.2892285160893895,-3.891386389961726,-3.079383482689182,-6.095283275439855,0.1682658816303406,-5.759428532878801,-1.95013773624706,-5.766940179929813,5.473963834491125,-3.463212328603096,-8.348471771120103,-5.797988400278785,-2.1378275162271025,-2.250936399406122,0.3778157389644918,-3.943239310340765
312,0.9764519413780208,-0.8995570042747336,-1.4727230994771436,0.9666310932965754,-2.117607046167852,-2.6151247629076764,-3.884097635169132,-2.027527813776813,-4.451000902686551,-4.794430933924598,-6.6838338128677,0.906671996452972,-7.435904995558957,-5.298426587499909,-1.98151625025464,-5.2343006375289285,1.7346380187187576,2.553643051208505,-3.822854247060675
313,2.497708130936896,-6.489463476915471,1.3386880568383492,-4.042902708208148,8.32014054925643,1.198345951490182,2.582249396670518,3.919590209719847,0.3367152064640574,-3.0420481283432586,-7.717971647735206,-4.635462157476691,-5.498880035961141,0.4287735157457065,-0.8007368404876342,-3.030301679601952,2.0252754279164806,-2.086629889947268,-0.6741019695065432
314,5.840625600406073,0.6974476170706885,7.602991835541529,2.350656236495659,10.98728736252104,5.917384157310219,5.237875137163472,10.522924641394273,5.446026210617563,-3.0875916601684006,-0.7499142610201646,-2.781630849107973,-5.782824159033125,0.2970904922438602,-3.9332345079396394,-3.0604530221858903,5.1102921418721845,2.9390792469508407,2.707734047187211
315,5.910132215707841,6.030791698594856,12.4531451041936,9.005229328371296,11.54807230495215,8.017883455567668,8.806680627196144,11.065559839813467,11.071627353400366,-6.029999798756888,10.051114431147903,0.2472007029133604,-11.444573381204982,-2.440357902095605,-8.901351302528234,-8.750573816153832,8.958669372592038,10.707428126896708,3.584794940328141
316,5.192349508307246,5.457381554253193,12.655837083216335,7.142732053910491,11.039091066046064,7.616262811108388,9.263670984900742,-1.8387115874976996,10.54784778924848,-4.991755185042822,11.031281633408884,0.1526428463576219,-10.33631329972384,0.725111247063627,-9.895137124539344,-11.016439090464756,8.776442259123561,8.49746885375513,3.29886835961827
317,5.598412414953665,1.7711941488734553,9.390709162413112,-3.923693940303487,9.085982879683444,8.136054578127796,9.168263369307066,-12.847612667852594,9.396101491154656,2.2769002117588677,5.964940968421996,2.0542630404074456,-0.4275703312514496,5.247145674909146,-4.831027297308063,-3.539604423021752,6.295816585464053,-0.124886513805559,6.084784408294866
318,2.6731204639569457,-6.415696647969848,3.941228571069957,-13.908917159200378,8.411423991720286,6.844873440299012,10.611719322428204,-12.591402334921288,12.239045413449562,1.932536193973477,4.16664742596706,0.8739601580664225,-0.4592715197885635,3.329733194685134,-2.1713494817341195,-0.7713048103307711,4.422332419150173,-2.542927454733971,5.579568477202647
319,-1.0273891028491977,-9.479712650738604,0.7221790535061259,-11.781006932593742,2.423908902079577,2.7833546430633964,5.681370721886584,-24.91681411431116,10.782246229733842,-6.833679816978826,3.6711833714288686,-4.714693212527514,-9.12002247421007,3.757111959304946,-0.2639347275240922,-6.585609662118614,4.0809413602629565,2.008319535621496,-0.3112653100088298
320,-4.185333074393285,-9.36539364773871,-0.8721893242625649,-10.402271918500215,-1.1221629499290768,0.5157762696239598,3.2110544259637326,-29.16506238661,11.109143454588455,-6.32153397603444,2.743079028190074,-1.391942761784582,-7.615142471597758,8.955477812992331,5.667668535742302,-5.383113889540655,1.2530465347499038,-2.0279911045700354,-2.810198515359076
321,-6.501734150269087,-11.731583405221375,-5.881798427384887,-14.32401478209731,2.1031847672453803,-2.0633308787622893,6.198453116031988,-2.4687950544320048,12.013018954848668,1.3052889178212994,1.51363933472189,6.5263592882395365,0.1767854000764901,5.43007420482032,7.306224660995049,2.012499875414477,-3.332035275447001,-11.120449595528392,-3.684920146894979
322,-4.238899450659411,-10.229708881035137,-8.215194169918146,-10.718517067122503,-0.1412346996772884,-4.401592771179248,4.388071102764163,7.366350043081573,6.761207053510869,4.269148243838115,1.043113164633773,9.267551477825606,2.789930448620583,-0.8765156473150975,4.268940317289792,6.504999149344104,-3.2401755564903816,-10.664540258724251,-5.876859240999884
323,-4.374413014309662,-8.875310909761769,-2.8282963935647576,-1.2220337256997031,4.176689068049743,-1.645985616827855,5.799781112373611,-0.7666755172274518,11.250771741654097,0.615044142443025,4.851362811143755,7.48770198288775,-2.49837946462458,2.794351425580361,2.2363212465709426,4.496463031708425,-1.648307114004678,-5.67305556135902,-5.995046918067949
324,-8.11925969831,-7.364276304732726,1.7194448855760989,9.874497200444305,18.72659188787613,-0.0116663603743898,8.794539705723027,7.3818147257845315,18.07974451657659,-9.979250031506863,7.7433312470938755,-1.9006002080159248,-14.454129274158015,3.6569436790296166,-2.303831764865862,-7.658101176677607,-1.2419441349331724,1.2457385559475431,-7.429229227220766
325,-4.65066807557604,-3.091042846654644,1.0945862483176647,13.53370237275214,16.571889854600037,-1.335093861625249,3.484378400069705,1.8235225260042984,11.451419918838114,-12.565655701931966,4.841590881062716,-1.3232691650795632,-16.18129588978009,-1.3155239752235302,-5.140723978467296,-14.617930171346782,0.6702793784122516,5.69807076812018,-7.170144693676455
326,-0.7830311641605328,-6.837791078787776,-0.9855379025809784,1.667208954816636,1.8661702149882555,0.1661348462353242,1.1761116867193926,-8.173385183498091,9.467432072933768,0.2454736305008193,2.899205277958925,16.83182175488138,-1.875476563440048,2.3220610281687173,0.1051244105812463,-4.379374197160827,-0.968461269636114,-1.682524409385176,-0.7867650730214789
327,-2.92333388133106,-7.2143342584805055,-3.623780008844239,-2.931427627769748,-6.927192111011838,-1.4837980131703916,-2.5017988301570013,9.925965436730776,3.781031783146315,4.010411441059729,1.2592433618088137,11.836479407809248,5.975217453391291,6.111308769224775,4.71535233330027,2.163988131968994,-4.308641557400141,-3.602175353862774,1.0374512367968185
328,-0.4155181432689563,3.668261592339,-5.025034758402161,5.351107001856857,-12.464070029798696,-5.18932128324172,-12.846689995144708,7.909342343197707,-15.536502721415822,-3.084029887126031,-3.1637888111172856,-13.267755124160926,5.114568081478154,4.0305339417441175,4.914771120324955,-1.548507192855367,-0.5640882620533123,5.215718833338441,-1.1104612322616774
329,3.364492705177897,3.6926646710183606,-2.693315730775585,3.66346561332288,-9.513390808474943,-0.5548716270075044,-8.729244932194295,-15.19282462163314,-13.290336248066186,-0.8300184422056196,-1.771209835383066,-11.255006152997398,8.723592932546156,7.579120361432981,5.078297497753562,-0.2000204591294969,3.617043858644635,4.048393138377555,2.125170069418382
330,1.4645964713267066,1.205015649017047,0.1185305334887443,1.4448907718872723,-2.2177283866355597,3.1298264754316767,0.1990957723801463,-3.7114488566238455,-0.1862307630858721,3.074776240848628,1.3027774913096568,1.3854948268620135,8.852202029005438,5.080578788263581,1.109334850025234,2.5618686001954147,2.0462269691957964,1.410234287945046,3.1358459707471704
